LabVIEW Measurement	
Writer_Version	2
Reader_Version	2
Separator	Tab
Decimal_Separator	.
Multi_Headings	Yes
X_Columns	One
Time_Pref	Absolute
Operator	physlab121
Date	2019/04/21
Time	13:12:38.1956139499428381954
***End_of_Header***	
	
Channels	1	
Samples	1000	
Date	2019/04/21	
Time	13:12:38.1956139499428381954	
Y_Unit_Label	Volts	
X_Dimension	Time	
X0	0.0000000000000000E+0	
Delta_X	0.010000	
***End_of_Header***		
X_Value	Voltage_0	Comment
0.000000	0.496102
0.010000	0.845909
0.020000	0.728340
0.030000	0.410745
0.040000	0.089284
0.050000	-0.146497
0.060000	-0.304006
0.070000	-0.396128
0.080000	-0.452174
0.090000	-0.473433
0.100000	-0.483740
0.110000	-0.474077
0.120000	-0.456684
0.130000	-0.430593
0.140000	-0.380667
0.150000	-0.312381
0.160000	-0.185149
0.170000	0.026473
0.180000	0.382721
0.190000	0.810477
0.200000	0.975395
0.210000	0.515107
0.220000	-0.091095
0.230000	-0.132324
0.240000	0.445532
0.250000	0.837534
0.260000	0.759907
0.270000	0.452940
0.280000	0.122138
0.290000	-0.133935
0.300000	-0.300785
0.310000	-0.405791
0.320000	-0.466025
0.330000	-0.493726
0.340000	-0.498557
0.350000	-0.496302
0.360000	-0.480197
0.370000	-0.451530
0.380000	-0.409978
0.390000	-0.347168
0.400000	-0.230244
0.410000	-0.037626
0.420000	0.289311
0.430000	0.713846
0.440000	0.981515
0.450000	0.675837
0.460000	0.060294
0.470000	-0.078211
0.480000	0.396894
0.490000	0.818208
0.500000	0.795016
0.510000	0.493204
0.520000	0.153705
0.530000	-0.111065
0.540000	-0.298530
0.550000	-0.411589
0.560000	-0.473111
0.570000	-0.507254
0.580000	-0.520782
0.590000	-0.517561
0.600000	-0.499201
0.610000	-0.476654
0.620000	-0.438324
0.630000	-0.371648
0.640000	-0.272440
0.650000	-0.100436
0.660000	0.204919
0.670000	0.617536
0.680000	0.952526
0.690000	0.801780
0.700000	0.217159
0.710000	-0.011857
0.720000	0.362107
0.730000	0.799204
0.740000	0.818530
0.750000	0.538942
0.760000	0.193324
0.770000	-0.092061
0.780000	-0.290800
0.790000	-0.410623
0.800000	-0.487928
0.810000	-0.519494
0.820000	-0.531412
0.830000	-0.532056
0.840000	-0.520782
0.850000	-0.493726
0.860000	-0.455717
0.870000	-0.401282
0.880000	-0.309804
0.890000	-0.147785
0.900000	0.124393
0.910000	0.516717
0.920000	0.909364
0.930000	0.885528
0.940000	0.366938
0.950000	0.073501
0.960000	0.337305
0.970000	0.774402
0.980000	0.847519
0.990000	0.580816
1.000000	0.230688
1.010000	-0.067259
1.020000	-0.280492
1.030000	-0.416098
1.040000	-0.491471
1.050000	-0.534311
1.060000	-0.552026
1.070000	-0.548483
1.080000	-0.538176
1.090000	-0.517239
1.100000	-0.476976
1.110000	-0.423829
1.120000	-0.339760
1.130000	-0.195779
1.140000	0.054174
1.150000	0.430071
1.160000	0.843332
1.170000	0.938998
1.180000	0.512530
1.190000	0.164978
1.200000	0.328608
1.210000	0.757330
1.220000	0.867168
1.230000	0.626233
1.240000	0.273850
1.250000	-0.041813
1.260000	-0.265353
1.270000	-0.409656
1.280000	-0.497591
1.290000	-0.545906
1.300000	-0.562334
1.310000	-0.563622
1.320000	-0.555892
1.330000	-0.535599
1.340000	-0.498879
1.350000	-0.447987
1.360000	-0.369715
1.370000	-0.237008
1.380000	-0.009602
1.390000	0.348578
1.400000	0.768604
1.410000	0.961545
1.420000	0.653934
1.430000	0.276427
1.440000	0.339237
1.450000	0.743479
1.460000	0.888749
1.470000	0.669073
1.480000	0.319911
1.490000	-0.006059
1.500000	-0.252469
1.510000	-0.409012
1.520000	-0.502100
1.530000	-0.552349
1.540000	-0.577151
1.550000	-0.579405
1.560000	-0.568454
1.570000	-0.551060
1.580000	-0.520138
1.590000	-0.467957
1.600000	-0.398061
1.610000	-0.277271
1.620000	-0.070480
1.630000	0.265153
1.640000	0.684534
1.650000	0.955747
1.660000	0.760873
1.670000	0.374347
1.680000	0.357919
1.690000	0.722865
1.700000	0.896157
1.710000	0.710303
1.720000	0.362429
1.730000	0.023897
1.740000	-0.234431
1.750000	-0.399993
1.760000	-0.502744
1.770000	-0.563944
1.780000	-0.586492
1.790000	-0.594222
1.800000	-0.588102
1.810000	-0.565877
1.820000	-0.532700
1.830000	-0.493081
1.840000	-0.421252
1.850000	-0.308515
1.860000	-0.123627
1.870000	0.185915
1.880000	0.602397
1.890000	0.928046
1.900000	0.842688
1.910000	0.477742
1.920000	0.393029
1.930000	0.705471
1.940000	0.906787
1.950000	0.751210
1.960000	0.406235
1.970000	0.056751
1.980000	-0.209307
1.990000	-0.394195
2.000000	-0.504033
2.010000	-0.564911
2.020000	-0.594866
2.030000	-0.606784
2.040000	-0.598409
2.050000	-0.581338
2.060000	-0.554925
2.070000	-0.511441
2.080000	-0.443155
2.090000	-0.338471
2.100000	-0.170655
2.110000	0.116985
2.120000	0.518006
2.130000	0.882307
2.140000	0.896802
2.150000	0.569220
2.160000	0.435225
2.170000	0.687755
2.180000	0.908720
2.190000	0.783420
2.200000	0.451330
2.210000	0.097981
2.220000	-0.188048
2.230000	-0.381311
2.240000	-0.498557
2.250000	-0.571031
2.260000	-0.603563
2.270000	-0.610327
2.280000	-0.609361
2.290000	-0.595510
2.300000	-0.564588
2.310000	-0.525292
2.320000	-0.466669
2.330000	-0.371004
2.340000	-0.210596
2.350000	0.053852
2.360000	0.434258
2.370000	0.830126
2.380000	0.933522
2.390000	0.656833
2.400000	0.489338
2.410000	0.683890
2.420000	0.908075
2.430000	0.821107
2.440000	0.498357
2.450000	0.133734
2.460000	-0.159703
2.470000	-0.363595
2.480000	-0.497591
2.490000	-0.571031
2.500000	-0.607106
2.510000	-0.620635
2.520000	-0.620957
2.530000	-0.607106
2.540000	-0.579083
2.550000	-0.539464
2.560000	-0.484707
2.570000	-0.393873
2.580000	-0.251503
2.590000	-0.003160
2.600000	0.356309
2.610000	0.766349
2.620000	0.945440
2.630000	0.745412
2.640000	0.546351
2.650000	0.685500
2.660000	0.910008
2.670000	0.850741
2.680000	0.543130
2.690000	0.175930
2.700000	-0.128137
2.710000	-0.350711
2.720000	-0.487283
2.730000	-0.570386
2.740000	-0.614515
2.750000	-0.633197
2.760000	-0.628043
2.770000	-0.618380
2.780000	-0.591323
2.790000	-0.554603
2.800000	-0.501778
2.810000	-0.418675
2.820000	-0.281781
2.830000	-0.060817
2.840000	0.281258
2.850000	0.696774
2.860000	0.941896
2.870000	0.814343
2.880000	0.606262
2.890000	0.691943
2.900000	0.908075
2.910000	0.878764
2.920000	0.589513
2.930000	0.218770
2.940000	-0.103979
2.950000	-0.331385
2.960000	-0.478909
2.970000	-0.568776
2.980000	-0.617414
2.990000	-0.632875
3.000000	-0.636740
3.010000	-0.628043
3.020000	-0.604852
3.030000	-0.565877
3.040000	-0.517561
3.050000	-0.440900
3.060000	-0.313991
3.070000	-0.107200
3.080000	0.216515
3.090000	0.620435
3.100000	0.919671
3.110000	0.873288
3.120000	0.668429
3.130000	0.705471
3.140000	0.911619
3.150000	0.905821
3.160000	0.632353
3.170000	0.265475
3.180000	-0.066937
3.190000	-0.312703
3.200000	-0.469890
3.210000	-0.567487
3.220000	-0.620957
3.230000	-0.639639
3.240000	-0.645115
3.250000	-0.637706
3.260000	-0.615481
3.270000	-0.579083
3.280000	-0.528835
3.290000	-0.460871
3.300000	-0.342336
3.310000	-0.149718
3.320000	0.152416
3.330000	0.547639
3.340000	0.885528
3.350000	0.917094
3.360000	0.731884
3.370000	0.728663
3.380000	0.910974
3.390000	0.929334
3.400000	0.679058
3.410000	0.309604
3.420000	-0.032794
3.430000	-0.289189
3.440000	-0.457650
3.450000	-0.564266
3.460000	-0.620313
3.470000	-0.644470
3.480000	-0.652523
3.490000	-0.645759
3.500000	-0.621279
3.510000	-0.590679
3.520000	-0.545584
3.530000	-0.479231
3.540000	-0.367783
3.550000	-0.194168
3.560000	0.089284
3.570000	0.477742
3.580000	0.841399
3.590000	0.940930
3.600000	0.790829
3.610000	0.752820
3.620000	0.910652
3.630000	0.948983
3.640000	0.720932
3.650000	0.354054
3.660000	0.003926
3.670000	-0.266320
3.680000	-0.443799
3.690000	-0.557824
3.700000	-0.620957
3.710000	-0.648658
3.720000	-0.655744
3.730000	-0.648013
3.740000	-0.632552
3.750000	-0.602597
3.760000	-0.556858
3.770000	-0.493403
3.780000	-0.392907
3.790000	-0.227667
3.800000	0.034848
3.810000	0.404625
3.820000	0.789540
3.830000	0.950915
3.840000	0.837534
3.850000	0.783420
3.860000	0.914517
3.870000	0.962833
3.880000	0.757974
3.890000	0.400759
3.900000	0.042256
3.910000	-0.239263
3.920000	-0.429305
3.930000	-0.549450
3.940000	-0.620635
3.950000	-0.651235
3.960000	-0.659287
3.970000	-0.657032
3.980000	-0.640283
3.990000	-0.609683
4.000000	-0.567810
4.010000	-0.508864
4.020000	-0.414166
4.030000	-0.260844
4.040000	-0.015078
4.050000	0.337305
4.060000	0.732206
4.070000	0.949305
4.080000	0.887138
4.090000	0.813054
4.100000	0.920315
4.110000	0.981193
4.120000	0.793406
4.130000	0.445532
4.140000	0.084130
4.150000	-0.210596
4.160000	-0.414166
4.170000	-0.539142
4.180000	-0.615481
4.190000	-0.655744
4.200000	-0.664441
4.210000	-0.660253
4.220000	-0.648013
4.230000	-0.619668
4.240000	-0.577795
4.250000	-0.522071
4.260000	-0.435747
4.270000	-0.292088
4.280000	-0.061139
4.290000	0.273206
4.300000	0.671328
4.310000	0.932233
4.320000	0.920315
4.330000	0.848808
4.340000	0.925147
4.350000	0.988280
4.360000	0.830126
4.370000	0.492559
4.380000	0.120850
4.390000	-0.181284
4.400000	-0.393873
4.410000	-0.532378
4.420000	-0.613548
4.430000	-0.651879
4.440000	-0.667662
4.450000	-0.669594
4.460000	-0.652201
4.470000	-0.626755
4.480000	-0.590357
4.490000	-0.537854
4.500000	-0.450241
4.510000	-0.318823
4.520000	-0.108811
4.530000	0.216515
4.540000	0.605296
4.550000	0.901633
4.560000	0.948661
4.570000	0.876831
4.580000	0.931589
4.590000	1.005029
4.600000	0.860082
4.610000	0.529924
4.620000	0.164334
4.630000	-0.151006
4.640000	-0.378412
4.650000	-0.519816
4.660000	-0.608073
4.670000	-0.654456
4.680000	-0.671205
4.690000	-0.669272
4.700000	-0.659931
4.710000	-0.634485
4.720000	-0.594222
4.730000	-0.547195
4.740000	-0.466025
4.750000	-0.340404
4.760000	-0.148430
4.770000	0.160147
4.780000	0.547317
4.790000	0.868778
4.800000	0.962189
4.810000	0.911296
4.820000	0.943829
4.830000	1.012760
4.840000	0.894547
4.850000	0.574374
4.860000	0.205886
4.870000	-0.114286
4.880000	-0.353288
4.890000	-0.509509
4.900000	-0.598732
4.910000	-0.649946
4.920000	-0.675070
4.930000	-0.676037
4.940000	-0.660898
4.950000	-0.640927
4.960000	-0.609361
4.970000	-0.555247
4.980000	-0.481163
4.990000	-0.368427
5.000000	-0.180318
5.010000	0.106677
5.020000	0.477742
5.030000	0.828515
5.040000	0.970564
5.050000	0.931267
5.060000	0.955747
5.070000	1.021779
5.080000	0.917739
5.090000	0.616892
5.100000	0.248404
5.110000	-0.085941
5.120000	-0.332995
5.130000	-0.493726
5.140000	-0.596477
5.150000	-0.646725
5.160000	-0.674426
5.170000	-0.676037
5.180000	-0.669594
5.190000	-0.645437
5.200000	-0.615481
5.210000	-0.562012
5.220000	-0.496947
5.230000	-0.385821
5.240000	-0.215427
5.250000	0.056751
5.260000	0.420086
5.270000	0.786319
5.280000	0.964444
5.290000	0.958646
5.300000	0.965410
5.310000	1.030153
5.320000	0.943185
5.330000	0.659088
5.340000	0.286734
5.350000	-0.047933
5.360000	-0.308193
5.370000	-0.480519
5.380000	-0.583271
5.390000	-0.646081
5.400000	-0.676037
5.410000	-0.677003
5.420000	-0.672816
5.430000	-0.654133
5.440000	-0.619346
5.450000	-0.572963
5.460000	-0.507898
5.470000	-0.405791
5.480000	-0.241840
5.490000	0.010368
5.500000	0.362107
5.510000	0.734138
5.520000	0.955425
5.530000	0.973141
5.540000	0.980227
5.550000	1.033375
5.560000	0.963155
5.570000	0.697740
5.580000	0.329574
5.590000	-0.015078
5.600000	-0.280814
5.610000	-0.459905
5.620000	-0.576184
5.630000	-0.642216
5.640000	-0.669594
5.650000	-0.680224
5.660000	-0.675392
5.670000	-0.656388
5.680000	-0.622889
5.690000	-0.581660
5.700000	-0.518205
5.710000	-0.421574
5.720000	-0.267608
5.730000	-0.030861
5.740000	0.307993
5.750000	0.683568
5.760000	0.938031
5.770000	0.986669
5.780000	0.990534
5.790000	1.040139
5.800000	0.985381
5.810000	0.732206
5.820000	0.374991
5.830000	0.023897
5.840000	-0.256657
5.850000	-0.445088
5.860000	-0.564588
5.870000	-0.633197
5.880000	-0.671849
5.890000	-0.679580
5.900000	-0.672816
5.910000	-0.660898
5.920000	-0.630298
5.930000	-0.584881
5.940000	-0.527869
5.950000	-0.436069
5.960000	-0.291444
5.970000	-0.069836
5.980000	0.254524
5.990000	0.633319
6.000000	0.911619
6.010000	0.996654
6.020000	1.005029
6.030000	1.043682
6.040000	1.005029
6.050000	0.769570
6.060000	0.412033
6.070000	0.060294
6.080000	-0.224768
6.090000	-0.427050
6.100000	-0.553959
6.110000	-0.625144
6.120000	-0.665407
6.130000	-0.680224
6.140000	-0.676037
6.150000	-0.662186
6.160000	-0.634163
6.170000	-0.591967
6.180000	-0.535921
6.190000	-0.453140
6.200000	-0.313991
6.210000	-0.106556
6.220000	0.203631
6.230000	0.578561
6.240000	0.879408
6.250000	0.998265
6.260000	1.011471
6.270000	1.049158
6.280000	1.019202
6.290000	0.803391
6.300000	0.454551
6.310000	0.097659
6.320000	-0.196101
6.330000	-0.406113
6.340000	-0.540753
6.350000	-0.622245
6.360000	-0.660898
6.370000	-0.678613
6.380000	-0.679580
6.390000	-0.663152
6.400000	-0.636418
6.410000	-0.600664
6.420000	-0.544618
6.430000	-0.459582
6.440000	-0.337183
6.450000	-0.138122
6.460000	0.160791
6.470000	0.525736
6.480000	0.846231
6.490000	0.996977
6.500000	1.023389
6.510000	1.055922
6.520000	1.036918
6.530000	0.832703
6.540000	0.494492
6.550000	0.137922
6.560000	-0.167112
6.570000	-0.385498
6.580000	-0.528835
6.590000	-0.609683
6.600000	-0.659609
6.610000	-0.680224
6.620000	-0.677647
6.630000	-0.665085
6.640000	-0.641249
6.650000	-0.603241
6.660000	-0.548483
6.670000	-0.472467
6.680000	-0.355865
6.690000	-0.170333
6.700000	0.112475
6.710000	0.466147
6.720000	0.800492
6.730000	0.987313
6.740000	1.032408
6.750000	1.061398
6.760000	1.047225
6.770000	0.862658
6.780000	0.531212
6.790000	0.172709
6.800000	-0.133935
6.810000	-0.362307
6.820000	-0.514984
6.830000	-0.601953
6.840000	-0.652523
6.850000	-0.678291
6.860000	-0.679258
6.870000	-0.661864
6.880000	-0.641894
6.890000	-0.608717
6.900000	-0.554925
6.910000	-0.482452
6.920000	-0.371970
6.930000	-0.196745
6.940000	0.072856
6.950000	0.419119
6.960000	0.764416
6.970000	0.976040
6.980000	1.035951
6.990000	1.066229
7.000000	1.058821
7.010000	0.885850
7.020000	0.565677
7.030000	0.207818
7.040000	-0.107522
7.050000	-0.342014
7.060000	-0.495980
7.070000	-0.595510
7.080000	-0.649624
7.090000	-0.670561
7.100000	-0.676681
7.110000	-0.668950
7.120000	-0.644470
7.130000	-0.610327
7.140000	-0.564911
7.150000	-0.493726
7.160000	-0.383566
7.170000	-0.222514
7.180000	0.034526
7.190000	0.373380
7.200000	0.719966
7.210000	0.958002
7.220000	1.037884
7.230000	1.069128
7.240000	1.064941
7.250000	0.908720
7.260000	0.599820
7.270000	0.244216
7.280000	-0.074668
7.290000	-0.318501
7.300000	-0.485673
7.310000	-0.583593
7.320000	-0.640605
7.330000	-0.668628
7.340000	-0.677647
7.350000	-0.665729
7.360000	-0.644470
7.370000	-0.615481
7.380000	-0.571675
7.390000	-0.500168
7.400000	-0.397416
7.410000	-0.243772
7.420000	-0.002194
7.430000	0.326997
7.440000	0.676804
7.450000	0.935454
7.460000	1.038528
7.470000	1.073316
7.480000	1.073316
7.490000	0.936421
7.500000	0.635252
7.510000	0.281903
7.520000	-0.042457
7.530000	-0.294343
7.540000	-0.467957
7.550000	-0.572319
7.560000	-0.633519
7.570000	-0.666051
7.580000	-0.676681
7.590000	-0.666373
7.600000	-0.648013
7.610000	-0.619668
7.620000	-0.571997
7.630000	-0.507576
7.640000	-0.413844
7.650000	-0.265353
7.660000	-0.035371
7.670000	0.282225
7.680000	0.632353
7.690000	0.908720
7.700000	1.027577
7.710000	1.078147
7.720000	1.077825
7.730000	0.955747
7.740000	0.667462
7.750000	0.317656
7.760000	-0.015400
7.770000	-0.272762
7.780000	-0.447665
7.790000	-0.563622
7.800000	-0.627077
7.810000	-0.663474
7.820000	-0.669917
7.830000	-0.669272
7.840000	-0.645437
7.850000	-0.618702
7.860000	-0.572641
7.870000	-0.516595
7.880000	-0.420930
7.890000	-0.284680
7.900000	-0.065004
7.910000	0.235842
7.920000	0.589835
7.930000	0.876187
7.940000	1.022423
7.950000	1.077825
7.960000	1.082013
7.970000	0.970564
7.980000	0.702894
7.990000	0.351477
8.000000	0.018743
8.010000	-0.245383
8.020000	-0.428660
8.030000	-0.551060
8.040000	-0.620635
8.050000	-0.654778
8.060000	-0.669917
8.070000	-0.665729
8.080000	-0.646403
8.090000	-0.619346
8.100000	-0.581982
8.110000	-0.518205
8.120000	-0.433492
8.130000	-0.301751
8.140000	-0.097537
8.150000	0.196545
8.160000	0.545062
8.170000	0.847197
8.180000	1.012760
8.190000	1.079436
8.200000	1.086200
8.210000	0.989246
8.220000	0.734138
8.230000	0.389808
8.240000	0.051920
8.250000	-0.219937
8.260000	-0.410945
8.270000	-0.539142
8.280000	-0.614837
8.290000	-0.649624
8.300000	-0.666696
8.310000	-0.665729
8.320000	-0.649302
8.330000	-0.620313
8.340000	-0.583915
8.350000	-0.526580
8.360000	-0.441545
8.370000	-0.316890
8.380000	-0.124916
8.390000	0.157892
8.400000	0.499646
8.410000	0.811444
8.420000	0.998909
8.430000	1.070095
8.440000	1.089099
8.450000	1.002452
8.460000	0.759263
8.470000	0.422662
8.480000	0.088317
8.490000	-0.195457
8.500000	-0.395162
8.510000	-0.523037
8.520000	-0.602597
8.530000	-0.645759
8.540000	-0.663797
8.550000	-0.660253
8.560000	-0.647691
8.570000	-0.624822
8.580000	-0.583593
8.590000	-0.531090
8.600000	-0.455395
8.610000	-0.333640
8.620000	-0.146175
8.630000	0.121494
8.640000	0.455517
8.650000	0.777300
8.660000	0.984092
8.670000	1.067840
8.680000	1.091031
8.690000	1.020490
8.700000	0.787286
8.710000	0.458094
8.720000	0.120206
8.730000	-0.169688
8.740000	-0.377768
8.750000	-0.508220
8.760000	-0.595188
8.770000	-0.639317
8.780000	-0.656066
8.790000	-0.659609
8.800000	-0.647047
8.810000	-0.620313
8.820000	-0.585525
8.830000	-0.534955
8.840000	-0.459582
8.850000	-0.342981
8.860000	-0.170333
8.870000	0.083808
8.880000	0.415898
8.890000	0.739614
8.900000	0.960901
8.910000	1.064619
8.920000	1.094253
8.930000	1.025644
8.940000	0.814987
8.950000	0.488372
8.960000	0.146618
8.970000	-0.139733
8.980000	-0.354254
8.990000	-0.500168
9.000000	-0.586169
9.010000	-0.634163
9.020000	-0.653811
9.030000	-0.659287
9.040000	-0.646081
9.050000	-0.622245
9.060000	-0.589713
9.070000	-0.543652
9.080000	-0.470534
9.090000	-0.355221
9.100000	-0.190625
9.110000	0.051598
9.120000	0.376924
9.130000	0.701606
9.140000	0.943507
9.150000	1.058177
9.160000	1.093930
9.170000	1.038528
9.180000	0.835279
9.190000	0.521549
9.200000	0.183983
9.210000	-0.114609
9.220000	-0.332351
9.230000	-0.480519
9.240000	-0.576828
9.250000	-0.627077
9.260000	-0.650912
9.270000	-0.657999
9.280000	-0.644470
9.290000	-0.621923
9.300000	-0.591967
9.310000	-0.544618
9.320000	-0.469890
9.330000	-0.368105
9.340000	-0.212206
9.350000	0.026795
9.360000	0.336338
9.370000	0.664886
9.380000	0.917094
9.390000	1.051090
9.400000	1.092642
9.410000	1.051090
9.420000	0.859437
9.430000	0.551827
9.440000	0.215549
9.450000	-0.085297
9.460000	-0.314635
9.470000	-0.465058
9.480000	-0.564266
9.490000	-0.622889
9.500000	-0.646403
9.510000	-0.652845
9.520000	-0.644792
9.530000	-0.621923
9.540000	-0.592934
9.550000	-0.547839
9.560000	-0.481486
9.570000	-0.379378
9.580000	-0.228956
9.590000	-0.005737
9.600000	0.298008
9.610000	0.629776
9.620000	0.892292
9.630000	1.040139
9.640000	1.094253
9.650000	1.052701
9.660000	0.880052
9.670000	0.585648
9.680000	0.242284
9.690000	-0.057596
9.700000	-0.291444
9.710000	-0.454107
9.720000	-0.555892
9.730000	-0.610005
9.740000	-0.640283
9.750000	-0.650590
9.760000	-0.640927
9.770000	-0.622245
9.780000	-0.595510
9.790000	-0.547195
9.800000	-0.484707
9.810000	-0.389686
9.820000	-0.242484
9.830000	-0.030861
9.840000	0.260644
9.850000	0.592734
9.860000	0.862658
9.870000	1.023067
9.880000	1.089743
9.890000	1.056566
9.900000	0.897446
9.910000	0.609806
9.920000	0.271917
9.930000	-0.031183
9.940000	-0.270185
9.950000	-0.437679
9.960000	-0.543007
9.970000	-0.606140
9.980000	-0.638028
9.990000	-0.646725

