LabVIEW Measurement	
Writer_Version	2
Reader_Version	2
Separator	Tab
Decimal_Separator	.
Multi_Headings	Yes
X_Columns	One
Time_Pref	Absolute
Operator	physlab121
Date	2019/04/21
Time	14:11:21.7931133499425288137
***End_of_Header***	
	
Channels	1	
Samples	1000	
Date	2019/04/21	
Time	14:11:21.7931133499425288137	
Y_Unit_Label	Volts	
X_Dimension	Time	
X0	0.0000000000000000E+0	
Delta_X	0.010000	
***End_of_Header***		
X_Value	Voltage_0	Comment
0.000000	0.264509
0.010000	0.470012
0.020000	0.680347
0.030000	0.869101
0.040000	1.005996
0.050000	1.080080
0.060000	1.103272
0.070000	1.090065
0.080000	1.022745
0.090000	0.896157
0.100000	0.713846
0.110000	0.488694
0.120000	0.249370
0.130000	0.023252
0.140000	-0.171943
0.150000	-0.321722
0.160000	-0.436391
0.170000	-0.517239
0.180000	-0.575862
0.190000	-0.610005
0.200000	-0.629654
0.210000	-0.633519
0.220000	-0.631586
0.230000	-0.624822
0.240000	-0.613870
0.250000	-0.595833
0.260000	-0.576828
0.270000	-0.551060
0.280000	-0.521749
0.290000	-0.490504
0.300000	-0.450886
0.310000	-0.400315
0.320000	-0.342336
0.330000	-0.268575
0.340000	-0.170655
0.350000	-0.045356
0.360000	0.112475
0.370000	0.298652
0.380000	0.509953
0.390000	0.718033
0.400000	0.896480
0.410000	1.019524
0.420000	1.084589
0.430000	1.099084
0.440000	1.071705
0.450000	0.995044
0.460000	0.859437
0.470000	0.669073
0.480000	0.442633
0.490000	0.207818
0.500000	-0.014112
0.510000	-0.201577
0.520000	-0.347812
0.530000	-0.455717
0.540000	-0.531734
0.550000	-0.581338
0.560000	-0.612582
0.570000	-0.628687
0.580000	-0.629654
0.590000	-0.629976
0.600000	-0.618702
0.610000	-0.605174
0.620000	-0.585525
0.630000	-0.564266
0.640000	-0.540109
0.650000	-0.512085
0.660000	-0.477620
0.670000	-0.436391
0.680000	-0.387431
0.690000	-0.325265
0.700000	-0.248926
0.710000	-0.145208
0.720000	-0.012179
0.730000	0.153061
0.740000	0.353088
0.750000	0.565677
0.760000	0.771503
0.770000	0.936421
0.780000	1.044004
0.790000	1.098762
0.800000	1.101339
0.810000	1.065263
0.820000	0.976362
0.830000	0.825938
0.840000	0.623012
0.850000	0.390452
0.860000	0.157570
0.870000	-0.057274
0.880000	-0.233143
0.890000	-0.371004
0.900000	-0.471178
0.910000	-0.542363
0.920000	-0.588102
0.930000	-0.614515
0.940000	-0.633519
0.950000	-0.632875
0.960000	-0.631264
0.970000	-0.619668
0.980000	-0.607106
0.990000	-0.588746
1.000000	-0.566521
1.010000	-0.540431
1.020000	-0.510153
1.030000	-0.475688
1.040000	-0.432848
1.050000	-0.383566
1.060000	-0.316890
1.070000	-0.234754
1.080000	-0.129103
1.090000	0.006825
1.100000	0.174642
1.110000	0.374991
1.120000	0.588869
1.130000	0.790185
1.140000	0.951560
1.150000	1.051090
1.160000	1.097796
1.170000	1.094253
1.180000	1.049158
1.190000	0.947694
1.200000	0.785675
1.210000	0.575340
1.220000	0.343425
1.230000	0.113442
1.240000	-0.092383
1.250000	-0.262455
1.260000	-0.393229
1.270000	-0.482130
1.280000	-0.548483
1.290000	-0.591323
1.300000	-0.614193
1.310000	-0.627399
1.320000	-0.627721
1.330000	-0.624822
1.340000	-0.614193
1.350000	-0.598732
1.360000	-0.579727
1.370000	-0.558146
1.380000	-0.531734
1.390000	-0.500490
1.400000	-0.466025
1.410000	-0.422218
1.420000	-0.369715
1.430000	-0.301751
1.440000	-0.215105
1.450000	-0.105590
1.460000	0.036136
1.470000	0.210717
1.480000	0.414288
1.490000	0.624945
1.500000	0.820141
1.510000	0.968631
1.520000	1.061720
1.530000	1.097151
1.540000	1.088133
1.550000	1.031442
1.560000	0.919993
1.570000	0.745412
1.580000	0.529279
1.590000	0.295109
1.600000	0.069635
1.610000	-0.127815
1.620000	-0.289189
1.630000	-0.406435
1.640000	-0.496302
1.650000	-0.555247
1.660000	-0.596155
1.670000	-0.617091
1.680000	-0.626433
1.690000	-0.626433
1.700000	-0.620313
1.710000	-0.608073
1.720000	-0.590679
1.730000	-0.573930
1.740000	-0.548483
1.750000	-0.522393
1.760000	-0.490504
1.770000	-0.455073
1.780000	-0.409334
1.790000	-0.352322
1.800000	-0.285968
1.810000	-0.195457
1.820000	-0.079177
1.830000	0.067381
1.840000	0.247759
1.850000	0.449397
1.860000	0.658766
1.870000	0.844943
1.880000	0.984414
1.890000	1.064297
1.900000	1.093608
1.910000	1.078147
1.920000	1.014048
1.930000	0.892936
1.940000	0.710625
1.950000	0.489016
1.960000	0.254846
1.970000	0.032915
1.980000	-0.160992
1.990000	-0.309482
2.000000	-0.422540
2.010000	-0.507576
2.020000	-0.562656
2.030000	-0.601630
2.040000	-0.623534
2.050000	-0.626433
2.060000	-0.627077
2.070000	-0.617414
2.080000	-0.604207
2.090000	-0.589713
2.100000	-0.569420
2.110000	-0.544296
2.120000	-0.515629
2.130000	-0.483740
2.140000	-0.446054
2.150000	-0.396450
2.160000	-0.339115
2.170000	-0.265353
2.180000	-0.171299
2.190000	-0.048255
2.200000	0.103456
2.210000	0.288023
2.220000	0.490305
2.230000	0.694519
2.240000	0.872322
2.250000	0.997943
2.260000	1.071383
2.270000	1.091354
2.280000	1.066874
2.290000	0.990857
2.300000	0.858471
2.310000	0.666818
2.320000	0.440700
2.330000	0.207496
2.340000	-0.008314
2.350000	-0.192558
2.360000	-0.334928
2.370000	-0.441867
2.380000	-0.520138
2.390000	-0.568776
2.400000	-0.601953
2.410000	-0.619668
2.420000	-0.625788
2.430000	-0.621601
2.440000	-0.614193
2.450000	-0.598732
2.460000	-0.583915
2.470000	-0.559435
2.480000	-0.535599
2.490000	-0.507576
2.500000	-0.474077
2.510000	-0.433814
2.520000	-0.389364
2.530000	-0.327842
2.540000	-0.250537
2.550000	-0.150362
2.560000	-0.025063
2.570000	0.134378
2.580000	0.321199
2.590000	0.523804
2.600000	0.724475
2.610000	0.897768
2.620000	1.014692
2.630000	1.075248
2.640000	1.086844
2.650000	1.055922
2.660000	0.968953
2.670000	0.818208
2.680000	0.621401
2.690000	0.395284
2.700000	0.168199
2.710000	-0.046644
2.720000	-0.222514
2.730000	-0.354254
2.740000	-0.455717
2.750000	-0.526902
2.760000	-0.576506
2.770000	-0.604529
2.780000	-0.615803
2.790000	-0.620313
2.800000	-0.618058
2.810000	-0.610005
2.820000	-0.594544
2.830000	-0.578761
2.840000	-0.555247
2.850000	-0.530445
2.860000	-0.500812
2.870000	-0.468923
2.880000	-0.426406
2.890000	-0.377768
2.900000	-0.313025
2.910000	-0.231532
2.920000	-0.127493
2.930000	0.006181
2.940000	0.166589
2.950000	0.357597
2.960000	0.563745
2.970000	0.760229
2.980000	0.918705
2.990000	1.027255
3.000000	1.076859
3.010000	1.081368
3.020000	1.037884
3.030000	0.940286
3.040000	0.785031
3.050000	0.577595
3.060000	0.350511
3.070000	0.120206
3.080000	-0.082398
3.090000	-0.251181
3.100000	-0.378734
3.110000	-0.473755
3.120000	-0.534633
3.130000	-0.578761
3.140000	-0.601308
3.150000	-0.614193
3.160000	-0.617091
3.170000	-0.612260
3.180000	-0.603885
3.190000	-0.587780
3.200000	-0.569420
3.210000	-0.548805
3.220000	-0.523359
3.230000	-0.493726
3.240000	-0.458616
3.250000	-0.415454
3.260000	-0.364884
3.270000	-0.299174
3.280000	-0.212850
3.290000	-0.103657
3.300000	0.036459
3.310000	0.203631
3.320000	0.397216
3.330000	0.601431
3.340000	0.789218
3.350000	0.939642
3.360000	1.034019
3.370000	1.075248
3.380000	1.072027
3.390000	1.020168
3.400000	0.909364
3.410000	0.744768
3.420000	0.532822
3.430000	0.304450
3.440000	0.083486
3.450000	-0.116219
3.460000	-0.274695
3.470000	-0.397094
3.480000	-0.485673
3.490000	-0.545584
3.500000	-0.583271
3.510000	-0.604207
3.520000	-0.615481
3.530000	-0.613548
3.540000	-0.608717
3.550000	-0.596155
3.560000	-0.583593
3.570000	-0.565877
3.580000	-0.542363
3.590000	-0.517239
3.600000	-0.484385
3.610000	-0.449597
3.620000	-0.403858
3.630000	-0.350711
3.640000	-0.283069
3.650000	-0.193846
3.660000	-0.078533
3.670000	0.065448
3.680000	0.238740
3.690000	0.437157
3.700000	0.634930
3.710000	0.819174
3.720000	0.958968
3.730000	1.044648
3.740000	1.075570
3.750000	1.061398
3.760000	0.996010
3.770000	0.875865
3.780000	0.699995
3.790000	0.483540
3.800000	0.256134
3.810000	0.040968
3.820000	-0.146175
3.830000	-0.300463
3.840000	-0.412555
3.850000	-0.494692
3.860000	-0.551382
3.870000	-0.586814
3.880000	-0.607106
3.890000	-0.615159
3.900000	-0.615803
3.910000	-0.608717
3.920000	-0.597121
3.930000	-0.577151
3.940000	-0.557824
3.950000	-0.535921
3.960000	-0.509187
3.970000	-0.476332
3.980000	-0.438001
3.990000	-0.392263
4.000000	-0.332673
4.010000	-0.261810
4.020000	-0.169366
4.030000	-0.050188
4.040000	0.097336
4.050000	0.275460
4.060000	0.474199
4.070000	0.672294
4.080000	0.846875
4.090000	0.976362
4.100000	1.050446
4.110000	1.073960
4.120000	1.050124
4.130000	0.977006
4.140000	0.843654
4.150000	0.657155
4.160000	0.439090
4.170000	0.216837
4.180000	0.001671
4.190000	-0.178063
4.200000	-0.322044
4.210000	-0.430593
4.220000	-0.503389
4.230000	-0.557502
4.240000	-0.587780
4.250000	-0.606462
4.260000	-0.613548
4.270000	-0.612260
4.280000	-0.604207
4.290000	-0.589068
4.300000	-0.573930
4.310000	-0.554281
4.320000	-0.530445
4.330000	-0.503711
4.340000	-0.466991
4.350000	-0.428016
4.360000	-0.379056
4.370000	-0.321078
4.380000	-0.247316
4.390000	-0.148107
4.400000	-0.026996
4.410000	0.127614
4.420000	0.309281
4.430000	0.508020
4.440000	0.707081
4.450000	0.873610
4.460000	0.992789
4.470000	1.056888
4.480000	1.070417
4.490000	1.035951
4.500000	0.946728
4.510000	0.803713
4.520000	0.612382
4.530000	0.391418
4.540000	0.169488
4.550000	-0.038592
4.560000	-0.209951
4.570000	-0.345557
4.580000	-0.446376
4.590000	-0.515629
4.600000	-0.564266
4.610000	-0.590679
4.620000	-0.605818
4.630000	-0.611938
4.640000	-0.608395
4.650000	-0.599698
4.660000	-0.584237
4.670000	-0.567810
4.680000	-0.546873
4.690000	-0.522715
4.700000	-0.494692
4.710000	-0.460549
4.720000	-0.420286
4.730000	-0.368749
4.740000	-0.308838
4.750000	-0.229600
4.760000	-0.126526
4.770000	0.001671
4.780000	0.163046
4.790000	0.346324
4.800000	0.543452
4.810000	0.734138
4.820000	0.896480
4.830000	1.005996
4.840000	1.061720
4.850000	1.067840
4.860000	1.024033
4.870000	0.923536
4.880000	0.766027
4.890000	0.565355
4.900000	0.341492
4.910000	0.121172
4.920000	-0.077889
4.930000	-0.241518
4.940000	-0.366494
4.950000	-0.459260
4.960000	-0.525936
4.970000	-0.569420
4.980000	-0.592289
4.990000	-0.605174
5.000000	-0.606784
5.010000	-0.602597
5.020000	-0.592934
5.030000	-0.577795
5.040000	-0.561045
5.050000	-0.539142
5.060000	-0.511763
5.070000	-0.487283
5.080000	-0.449597
5.090000	-0.408046
5.100000	-0.355543
5.110000	-0.291444
5.120000	-0.208019
5.130000	-0.099147
5.140000	0.034204
5.150000	0.197511
5.160000	0.384654
5.170000	0.582427
5.180000	0.771503
5.190000	0.919671
5.200000	1.017269
5.210000	1.060754
5.220000	1.058499
5.230000	1.001808
5.240000	0.888105
5.250000	0.723187
5.260000	0.520582
5.270000	0.298008
5.280000	0.079943
5.290000	-0.111065
5.300000	-0.265676
5.310000	-0.385176
5.320000	-0.475366
5.330000	-0.533666
5.340000	-0.570386
5.350000	-0.593256
5.360000	-0.607106
5.370000	-0.609039
5.380000	-0.604529
5.390000	-0.592289
5.400000	-0.575540
5.410000	-0.556858
5.420000	-0.531412
5.430000	-0.503067
5.440000	-0.473111
5.450000	-0.437035
5.460000	-0.394517
5.470000	-0.340726
5.480000	-0.271796
5.490000	-0.188048
5.500000	-0.076278
5.510000	0.063515
5.520000	0.232620
5.530000	0.422340
5.540000	0.617536
5.550000	0.797915
5.560000	0.938353
5.570000	1.027577
5.580000	1.063330
5.590000	1.048191
5.600000	0.983126
5.610000	0.858793
5.620000	0.683246
5.630000	0.471300
5.640000	0.255168
5.650000	0.039035
5.660000	-0.142310
5.670000	-0.293054
5.680000	-0.405791
5.690000	-0.486639
5.700000	-0.542363
5.710000	-0.575862
5.720000	-0.595510
5.730000	-0.603885
5.740000	-0.603563
5.750000	-0.599054
5.760000	-0.586814
5.770000	-0.570064
5.780000	-0.549127
5.790000	-0.527224
5.800000	-0.499523
5.810000	-0.466991
5.820000	-0.429305
5.830000	-0.382277
5.840000	-0.327198
5.850000	-0.253114
5.860000	-0.164213
5.870000	-0.048577
5.880000	0.096048
5.890000	0.268374
5.900000	0.458416
5.910000	0.653934
5.920000	0.829482
5.930000	0.958968
5.940000	1.036273
5.950000	1.059143
5.960000	1.036596
5.970000	0.954781
5.980000	0.819496
5.990000	0.635574
6.000000	0.423951
6.010000	0.205564
6.020000	0.002315
6.030000	-0.173554
6.040000	-0.313669
6.050000	-0.417065
6.060000	-0.492759
6.070000	-0.542363
6.080000	-0.574252
6.090000	-0.592934
6.100000	-0.600020
6.110000	-0.599698
6.120000	-0.588746
6.130000	-0.578439
6.140000	-0.560401
6.150000	-0.543974
6.160000	-0.520782
6.170000	-0.494692
6.180000	-0.460871
6.190000	-0.421574
6.200000	-0.373258
6.210000	-0.313347
6.220000	-0.238619
6.230000	-0.143598
6.240000	-0.020876
6.250000	0.127936
6.260000	0.307671
6.270000	0.500612
6.280000	0.695486
6.290000	0.857827
6.300000	0.974107
6.310000	1.039495
6.320000	1.055922
6.330000	1.020168
6.340000	0.932555
6.350000	0.787608
6.360000	0.596599
6.370000	0.378856
6.380000	0.161757
6.390000	-0.038270
6.400000	-0.207053
6.410000	-0.338471
6.420000	-0.435425
6.430000	-0.505643
6.440000	-0.552993
6.450000	-0.580049
6.460000	-0.594222
6.470000	-0.599376
6.480000	-0.596477
6.490000	-0.586492
6.500000	-0.571353
6.510000	-0.559113
6.520000	-0.539142
6.530000	-0.513374
6.540000	-0.484707
6.550000	-0.448953
6.560000	-0.409334
6.570000	-0.359408
6.580000	-0.299819
6.590000	-0.219615
6.600000	-0.119440
6.610000	0.010690
6.620000	0.164012
6.630000	0.346001
6.640000	0.536366
6.650000	0.722220
6.660000	0.879086
6.670000	0.987313
6.680000	1.043682
6.690000	1.051090
6.700000	1.005673
6.710000	0.903888
6.720000	0.751210
6.730000	0.548606
6.740000	0.332473
6.750000	0.116341
6.760000	-0.077566
6.770000	-0.237330
6.780000	-0.361663
6.790000	-0.451530
6.800000	-0.515629
6.810000	-0.556214
6.820000	-0.581660
6.830000	-0.595833
6.840000	-0.595833
6.850000	-0.592612
6.860000	-0.581982
6.870000	-0.568132
6.880000	-0.549450
6.890000	-0.527869
6.900000	-0.502744
6.910000	-0.474721
6.920000	-0.439290
6.930000	-0.395484
6.940000	-0.345557
6.950000	-0.280170
6.960000	-0.199322
6.970000	-0.094960
6.980000	0.036781
6.990000	0.198799
7.000000	0.382721
7.010000	0.574374
7.020000	0.754109
7.030000	0.902922
7.040000	0.999231
7.050000	1.043682
7.060000	1.042716
7.070000	0.984737
7.080000	0.871033
7.090000	0.705149
7.100000	0.500290
7.110000	0.284157
7.120000	0.074789
7.130000	-0.111710
7.140000	-0.265353
7.150000	-0.380345
7.160000	-0.466347
7.170000	-0.520138
7.180000	-0.559757
7.190000	-0.582304
7.200000	-0.594222
7.210000	-0.595833
7.220000	-0.588424
7.230000	-0.579083
7.240000	-0.565877
7.250000	-0.547195
7.260000	-0.521427
7.270000	-0.496624
7.280000	-0.465380
7.290000	-0.428338
7.300000	-0.383888
7.310000	-0.331385
7.320000	-0.263743
7.330000	-0.177419
7.340000	-0.068225
7.350000	0.071246
7.360000	0.234553
7.370000	0.419119
7.380000	0.608839
7.390000	0.786964
7.400000	0.922570
7.410000	1.008894
7.420000	1.047547
7.430000	1.031120
7.440000	0.963155
7.450000	0.836246
7.460000	0.659732
7.470000	0.452296
7.480000	0.235519
7.490000	0.031627
7.500000	-0.144564
7.510000	-0.287257
7.520000	-0.393873
7.530000	-0.472467
7.540000	-0.529157
7.550000	-0.563300
7.560000	-0.583593
7.570000	-0.592289
7.580000	-0.592934
7.590000	-0.584559
7.600000	-0.575218
7.610000	-0.561045
7.620000	-0.541397
7.630000	-0.519172
7.640000	-0.491793
7.650000	-0.459905
7.660000	-0.421574
7.670000	-0.375191
7.680000	-0.314635
7.690000	-0.248926
7.700000	-0.160669
7.710000	-0.042457
7.720000	0.101846
7.730000	0.268052
7.740000	0.455195
7.750000	0.648136
7.760000	0.817886
7.770000	0.942863
7.780000	1.017269
7.790000	1.044326
7.800000	1.016303
7.810000	0.933200
7.820000	0.798237
7.830000	0.617214
7.840000	0.408812
7.850000	0.190747
7.860000	-0.007026
7.870000	-0.175808
7.880000	-0.310126
7.890000	-0.415776
7.900000	-0.486961
7.910000	-0.536565
7.920000	-0.567487
7.930000	-0.585203
7.940000	-0.591645
7.950000	-0.589713
7.960000	-0.581660
7.970000	-0.571353
7.980000	-0.554603
7.990000	-0.534633
8.000000	-0.511441
8.010000	-0.482452
8.020000	-0.452496
8.030000	-0.411267
8.040000	-0.364562
8.050000	-0.305939
8.060000	-0.227667
8.070000	-0.135545
8.080000	-0.012823
8.090000	0.134378
8.100000	0.307993
8.110000	0.496747
8.120000	0.682279
8.130000	0.842366
8.140000	0.958324
8.150000	1.021779
8.160000	1.036596
8.170000	0.998909
8.180000	0.904532
8.190000	0.759263
8.200000	0.569220
8.210000	0.357919
8.220000	0.149517
8.230000	-0.044712
8.240000	-0.210918
8.250000	-0.333318
8.260000	-0.427372
8.270000	-0.494048
8.280000	-0.539142
8.290000	-0.568132
8.300000	-0.582948
8.310000	-0.589068
8.320000	-0.588102
8.330000	-0.578117
8.340000	-0.564911
8.350000	-0.549127
8.360000	-0.528191
8.370000	-0.505321
8.380000	-0.474399
8.390000	-0.440256
8.400000	-0.401282
8.410000	-0.352966
8.420000	-0.289833
8.430000	-0.209307
8.440000	-0.109133
8.450000	0.015844
8.460000	0.168522
8.470000	0.344391
8.480000	0.529924
8.490000	0.712879
8.500000	0.865557
8.510000	0.974107
8.520000	1.029509
8.530000	1.032086
8.540000	0.980227
8.550000	0.876509
8.560000	0.717711
8.570000	0.524126
8.580000	0.309604
8.590000	0.101202
8.600000	-0.081754
8.610000	-0.236364
8.620000	-0.354899
8.630000	-0.443155
8.640000	-0.503067
8.650000	-0.544940
8.660000	-0.571353
8.670000	-0.583271
8.680000	-0.586492
8.690000	-0.579727
8.700000	-0.571997
8.710000	-0.559113
8.720000	-0.544296
8.730000	-0.521749
8.740000	-0.496947
8.750000	-0.469246
8.760000	-0.434458
8.770000	-0.387753
8.780000	-0.336861
8.790000	-0.271473
8.800000	-0.189337
8.810000	-0.084009
8.820000	0.047410
8.830000	0.206208
8.840000	0.384010
8.850000	0.574374
8.860000	0.747989
8.870000	0.891326
8.880000	0.984092
8.890000	1.028543
8.900000	1.017591
8.910000	0.955747
8.920000	0.841722
8.930000	0.678092
8.940000	0.476776
8.950000	0.266119
8.960000	0.063515
8.970000	-0.117830
8.980000	-0.264387
8.990000	-0.375835
9.000000	-0.459260
9.010000	-0.516917
9.020000	-0.554925
9.030000	-0.574574
9.040000	-0.585203
9.050000	-0.589068
9.060000	-0.582304
9.070000	-0.571675
9.080000	-0.557180
9.090000	-0.537854
9.100000	-0.514340
9.110000	-0.487606
9.120000	-0.454751
9.130000	-0.418997
9.140000	-0.376157
9.150000	-0.320755
9.160000	-0.256012
9.170000	-0.165823
9.180000	-0.058562
9.190000	0.078010
9.200000	0.238096
9.210000	0.420408
9.220000	0.607229
9.230000	0.776012
9.240000	0.911941
9.250000	0.996332
9.260000	1.026288
9.270000	1.005996
9.280000	0.933200
9.290000	0.805324
9.300000	0.633641
9.310000	0.426206
9.320000	0.216837
9.330000	0.019709
9.340000	-0.153261
9.350000	-0.287579
9.360000	-0.391296
9.370000	-0.468601
9.380000	-0.520138
9.390000	-0.552349
9.400000	-0.573930
9.410000	-0.580049
9.420000	-0.580694
9.430000	-0.577151
9.440000	-0.562978
9.450000	-0.550094
9.460000	-0.530445
9.470000	-0.508864
9.480000	-0.481808
9.490000	-0.449597
9.500000	-0.411589
9.510000	-0.362951
9.520000	-0.308193
9.530000	-0.235398
9.540000	-0.145531
9.550000	-0.029573
9.560000	0.111509
9.570000	0.277715
9.580000	0.459705
9.590000	0.641050
9.600000	0.803391
9.610000	0.925791
9.620000	0.999231
9.630000	1.020490
9.640000	0.988602
9.650000	0.907753
9.660000	0.770536
9.670000	0.587580
9.680000	0.381755
9.690000	0.172387
9.700000	-0.020232
9.710000	-0.186438
9.720000	-0.314313
9.730000	-0.411911
9.740000	-0.481486
9.750000	-0.528191
9.760000	-0.560079
9.770000	-0.575862
9.780000	-0.579727
9.790000	-0.580049
9.800000	-0.569742
9.810000	-0.558469
9.820000	-0.541075
9.830000	-0.521104
9.840000	-0.498557
9.850000	-0.470212
9.860000	-0.437679
9.870000	-0.396128
9.880000	-0.351677
9.890000	-0.289833
9.900000	-0.217360
9.910000	-0.124272
9.920000	-0.003482
9.930000	0.143075
9.940000	0.314757
9.950000	0.497391
9.960000	0.676481
9.970000	0.830448
9.980000	0.942541
9.990000	1.003741

