LabVIEW Measurement	
Writer_Version	2
Reader_Version	2
Separator	Tab
Decimal_Separator	.
Multi_Headings	Yes
X_Columns	One
Time_Pref	Absolute
Operator	physlab121
Date	2019/04/21
Time	12:51:43.105465049942884874
***End_of_Header***	
	
Channels	1	
Samples	1000	
Date	2019/04/21	
Time	12:51:43.105465049942884874	
Y_Unit_Label	Volts	
X_Dimension	Time	
X0	0.0000000000000000E+0	
Delta_X	0.010000	
***End_of_Header***		
X_Value	Voltage_0	Comment
0.000000	0.040324
0.010000	0.112797
0.020000	0.173675
0.030000	0.243572
0.040000	0.290921
0.050000	0.338915
0.060000	0.355987
0.070000	0.355987
0.080000	0.333117
0.090000	0.289633
0.100000	0.231332
0.110000	0.157570
0.120000	0.084130
0.130000	0.007791
0.140000	-0.055663
0.150000	-0.114609
0.160000	-0.160992
0.170000	-0.197067
0.180000	-0.224446
0.190000	-0.244417
0.200000	-0.257623
0.210000	-0.261488
0.220000	-0.264387
0.230000	-0.254724
0.240000	-0.241196
0.250000	-0.218648
0.260000	-0.198678
0.270000	-0.170977
0.280000	-0.129425
0.290000	-0.086908
0.300000	-0.033760
0.310000	0.023574
0.320000	0.093793
0.330000	0.155637
0.340000	0.221025
0.350000	0.280292
0.360000	0.329574
0.370000	0.355665
0.380000	0.355020
0.390000	0.345357
0.400000	0.299940
0.410000	0.245827
0.420000	0.172709
0.430000	0.105711
0.440000	0.025829
0.450000	-0.040202
0.460000	-0.100114
0.470000	-0.150684
0.480000	-0.190947
0.490000	-0.220259
0.500000	-0.239585
0.510000	-0.258911
0.520000	-0.261488
0.530000	-0.258589
0.540000	-0.254402
0.550000	-0.247638
0.560000	-0.227667
0.570000	-0.205120
0.580000	-0.175486
0.590000	-0.142632
0.600000	-0.096249
0.610000	-0.045034
0.620000	0.005537
0.630000	0.072212
0.640000	0.138888
0.650000	0.204597
0.660000	0.265475
0.670000	0.317334
0.680000	0.350511
0.690000	0.357919
0.700000	0.348578
0.710000	0.310892
0.720000	0.263543
0.730000	0.190425
0.740000	0.120850
0.750000	0.048376
0.760000	-0.024097
0.770000	-0.087230
0.780000	-0.138122
0.790000	-0.178707
0.800000	-0.217038
0.810000	-0.236364
0.820000	-0.252469
0.830000	-0.261810
0.840000	-0.265353
0.850000	-0.255690
0.860000	-0.246994
0.870000	-0.234431
0.880000	-0.209951
0.890000	-0.181284
0.900000	-0.149074
0.910000	-0.107200
0.920000	-0.056630
0.930000	-0.008636
0.940000	0.055785
0.950000	0.124715
0.960000	0.189458
0.970000	0.250336
0.980000	0.304772
0.990000	0.347934
1.000000	0.356631
1.010000	0.353410
1.020000	0.324420
1.030000	0.277071
1.040000	0.208463
1.050000	0.135023
1.060000	0.061261
1.070000	-0.008636
1.080000	-0.072413
1.090000	-0.130392
1.100000	-0.169688
1.110000	-0.205442
1.120000	-0.232821
1.130000	-0.249248
1.140000	-0.256012
1.150000	-0.263099
1.160000	-0.259556
1.170000	-0.248282
1.180000	-0.233787
1.190000	-0.218004
1.200000	-0.190947
1.210000	-0.155516
1.220000	-0.120406
1.230000	-0.073701
1.240000	-0.017011
1.250000	0.042901
1.260000	0.105389
1.270000	0.172709
1.280000	0.240351
1.290000	0.292532
1.300000	0.331507
1.310000	0.352444
1.320000	0.357919
1.330000	0.327964
1.340000	0.282547
1.350000	0.225534
1.360000	0.153705
1.370000	0.079943
1.380000	0.007469
1.390000	-0.054053
1.400000	-0.114286
1.410000	-0.157126
1.420000	-0.196745
1.430000	-0.226701
1.440000	-0.244095
1.450000	-0.252469
1.460000	-0.259233
1.470000	-0.261810
1.480000	-0.248604
1.490000	-0.236364
1.500000	-0.220903
1.510000	-0.196745
1.520000	-0.161958
1.530000	-0.126204
1.540000	-0.086263
1.550000	-0.033116
1.560000	0.028406
1.570000	0.093149
1.580000	0.155315
1.590000	0.221991
1.600000	0.278359
1.610000	0.326675
1.620000	0.347612
1.630000	0.356309
1.640000	0.338915
1.650000	0.295753
1.660000	0.241317
1.670000	0.174319
1.680000	0.100557
1.690000	0.023252
1.700000	-0.039558
1.710000	-0.100114
1.720000	-0.150684
1.730000	-0.188048
1.740000	-0.216071
1.750000	-0.239907
1.760000	-0.253758
1.770000	-0.256335
1.780000	-0.255368
1.790000	-0.252469
1.800000	-0.242806
1.810000	-0.220903
1.820000	-0.202543
1.830000	-0.172909
1.840000	-0.137156
1.850000	-0.093672
1.860000	-0.045356
1.870000	0.011012
1.880000	0.078654
1.890000	0.140176
1.900000	0.206852
1.910000	0.269018
1.920000	0.316690
1.930000	0.342458
1.940000	0.353088
1.950000	0.341492
1.960000	0.305416
1.970000	0.252591
1.980000	0.186237
1.990000	0.119562
2.000000	0.040646
2.010000	-0.024419
2.020000	-0.081754
2.030000	-0.135867
2.040000	-0.179029
2.050000	-0.208341
2.060000	-0.231210
2.070000	-0.250537
2.080000	-0.257623
2.090000	-0.255690
2.100000	-0.252469
2.110000	-0.246027
2.120000	-0.227667
2.130000	-0.204476
2.140000	-0.181606
2.150000	-0.143920
2.160000	-0.103335
2.170000	-0.056630
2.180000	-0.003482
2.190000	0.061583
2.200000	0.125360
2.210000	0.189458
2.220000	0.248404
2.230000	0.304128
2.240000	0.337305
2.250000	0.351155
2.260000	0.347612
2.270000	0.317656
2.280000	0.270629
2.290000	0.203309
2.300000	0.135345
2.310000	0.062227
2.320000	-0.007670
2.330000	-0.072091
2.340000	-0.123950
2.350000	-0.171621
2.360000	-0.204798
2.370000	-0.225090
2.380000	-0.247316
2.390000	-0.253436
2.400000	-0.254402
2.410000	-0.254402
2.420000	-0.244739
2.430000	-0.230244
2.440000	-0.213817
2.450000	-0.187082
2.460000	-0.151973
2.470000	-0.115575
2.480000	-0.070802
2.490000	-0.016044
2.500000	0.046766
2.510000	0.108610
2.520000	0.173675
2.530000	0.236164
2.540000	0.290277
2.550000	0.333117
2.560000	0.349867
2.570000	0.349867
2.580000	0.320233
2.590000	0.278359
2.600000	0.218126
2.610000	0.152094
2.620000	0.079621
2.630000	0.008113
2.640000	-0.050832
2.650000	-0.112032
2.660000	-0.158737
2.670000	-0.196101
2.680000	-0.223158
2.690000	-0.241196
2.700000	-0.250537
2.710000	-0.253436
2.720000	-0.253114
2.730000	-0.246027
2.740000	-0.235398
2.750000	-0.216394
2.760000	-0.194168
2.770000	-0.160669
2.780000	-0.122339
2.790000	-0.077566
2.800000	-0.028284
2.810000	0.028728
2.820000	0.093471
2.830000	0.161113
2.840000	0.221347
2.850000	0.274494
2.860000	0.323132
2.870000	0.344069
2.880000	0.348578
2.890000	0.328286
2.900000	0.296075
2.910000	0.236808
2.920000	0.166911
2.930000	0.097336
2.940000	0.027762
2.950000	-0.039558
2.960000	-0.098825
2.970000	-0.144242
2.980000	-0.187726
2.990000	-0.216394
3.000000	-0.234431
3.010000	-0.246994
3.020000	-0.254080
3.030000	-0.252791
3.040000	-0.246671
3.050000	-0.239907
3.060000	-0.222514
3.070000	-0.197712
3.080000	-0.167112
3.090000	-0.136190
3.100000	-0.089162
3.110000	-0.040524
3.120000	0.012623
3.130000	0.078010
3.140000	0.140176
3.150000	0.204597
3.160000	0.264509
3.170000	0.314113
3.180000	0.337627
3.190000	0.351477
3.200000	0.338271
3.210000	0.305094
3.220000	0.249048
3.230000	0.184305
3.240000	0.115374
3.250000	0.044511
3.260000	-0.024097
3.270000	-0.084653
3.280000	-0.133935
3.290000	-0.179352
3.300000	-0.208019
3.310000	-0.228634
3.320000	-0.243128
3.330000	-0.254080
3.340000	-0.256335
3.350000	-0.245061
3.360000	-0.238941
3.370000	-0.225413
3.380000	-0.202221
3.390000	-0.174842
3.400000	-0.143920
3.410000	-0.102369
3.420000	-0.051798
3.430000	0.001671
3.440000	0.062227
3.450000	0.126004
3.460000	0.189781
3.470000	0.248726
3.480000	0.305416
3.490000	0.333117
3.500000	0.347612
3.510000	0.341814
3.520000	0.314435
3.530000	0.264509
3.540000	0.199444
3.550000	0.129869
3.560000	0.060616
3.570000	-0.007026
3.580000	-0.072735
3.590000	-0.120084
3.600000	-0.166145
3.610000	-0.201577
3.620000	-0.223480
3.630000	-0.240229
3.640000	-0.254402
3.650000	-0.254724
3.660000	-0.247316
3.670000	-0.242484
3.680000	-0.227667
3.690000	-0.207053
3.700000	-0.184827
3.710000	-0.150684
3.720000	-0.107522
3.730000	-0.065971
3.740000	-0.014434
3.750000	0.049021
3.760000	0.108932
3.770000	0.175286
3.780000	0.236486
3.790000	0.285446
3.800000	0.324743
3.810000	0.349545
3.820000	0.345357
3.830000	0.318300
3.840000	0.277715
3.850000	0.218448
3.860000	0.148229
3.870000	0.074467
3.880000	0.008758
3.890000	-0.053731
3.900000	-0.113642
3.910000	-0.156160
3.920000	-0.190625
3.930000	-0.217038
3.940000	-0.239263
3.950000	-0.247638
3.960000	-0.253436
3.970000	-0.250859
3.980000	-0.240229
3.990000	-0.230244
4.000000	-0.213495
4.010000	-0.186116
4.020000	-0.156482
4.030000	-0.122017
4.040000	-0.077889
4.050000	-0.024419
4.060000	0.033882
4.070000	0.092505
4.080000	0.159503
4.090000	0.223602
4.100000	0.275138
4.110000	0.313791
4.120000	0.344391
4.130000	0.346968
4.140000	0.321521
4.150000	0.286412
4.160000	0.231654
4.170000	0.165301
4.180000	0.090894
4.190000	0.025185
4.200000	-0.043101
4.210000	-0.099792
4.220000	-0.146175
4.230000	-0.183539
4.240000	-0.217682
4.250000	-0.233143
4.260000	-0.244417
4.270000	-0.255046
4.280000	-0.251503
4.290000	-0.245383
4.300000	-0.232177
4.310000	-0.218326
4.320000	-0.194813
4.330000	-0.161314
4.340000	-0.129425
4.350000	-0.088518
4.360000	-0.036015
4.370000	0.019387
4.380000	0.076722
4.390000	0.143720
4.400000	0.204275
4.410000	0.260966
4.420000	0.309281
4.430000	0.336660
4.440000	0.342136
4.450000	0.330540
4.460000	0.297686
4.470000	0.240351
4.480000	0.177863
4.490000	0.111831
4.500000	0.038069
4.510000	-0.027318
4.520000	-0.085619
4.530000	-0.133613
4.540000	-0.175808
4.550000	-0.206086
4.560000	-0.227667
4.570000	-0.242484
4.580000	-0.250859
4.590000	-0.247960
4.600000	-0.246027
4.610000	-0.237330
4.620000	-0.217038
4.630000	-0.199000
4.640000	-0.172587
4.650000	-0.137478
4.660000	-0.091739
4.670000	-0.050510
4.680000	0.002638
4.690000	0.065448
4.700000	0.124071
4.710000	0.190425
4.720000	0.251303
4.730000	0.295753
4.740000	0.327964
4.750000	0.343747
4.760000	0.330540
4.770000	0.305094
4.780000	0.255490
4.790000	0.192679
4.800000	0.125037
4.810000	0.056751
4.820000	-0.010891
4.830000	-0.074990
4.840000	-0.123950
4.850000	-0.163568
4.860000	-0.200933
4.870000	-0.223802
4.880000	-0.237330
4.890000	-0.250215
4.900000	-0.248926
4.910000	-0.245383
4.920000	-0.240229
4.930000	-0.223480
4.940000	-0.201899
4.950000	-0.178063
4.960000	-0.146175
4.970000	-0.105912
4.980000	-0.062750
4.990000	-0.010891
5.000000	0.047732
5.010000	0.111831
5.020000	0.174319
5.030000	0.236808
5.040000	0.287056
5.050000	0.320877
5.060000	0.338915
5.070000	0.336983
5.080000	0.312503
5.090000	0.264509
5.100000	0.209429
5.110000	0.143075
5.120000	0.068669
5.130000	0.002638
5.140000	-0.059207
5.150000	-0.111710
5.160000	-0.155516
5.170000	-0.189981
5.180000	-0.218648
5.190000	-0.237975
5.200000	-0.246994
5.210000	-0.249248
5.220000	-0.248282
5.230000	-0.239585
5.240000	-0.226701
5.250000	-0.206730
5.260000	-0.184505
5.270000	-0.155194
5.280000	-0.115575
5.290000	-0.074990
5.300000	-0.020876
5.310000	0.036459
5.320000	0.094437
5.330000	0.157248
5.340000	0.215871
5.350000	0.276105
5.360000	0.313147
5.370000	0.336660
5.380000	0.336016
5.390000	0.318300
5.400000	0.278359
5.410000	0.221025
5.420000	0.158214
5.430000	0.091539
5.440000	0.020031
5.450000	-0.044068
5.460000	-0.097859
5.470000	-0.144886
5.480000	-0.185149
5.490000	-0.212206
5.500000	-0.228634
5.510000	-0.243772
5.520000	-0.251181
5.530000	-0.246027
5.540000	-0.242162
5.550000	-0.231855
5.560000	-0.209307
5.570000	-0.189337
5.580000	-0.160669
5.590000	-0.125238
5.600000	-0.084009
5.610000	-0.037303
5.620000	0.018743
5.630000	0.082197
5.640000	0.145330
5.650000	0.202665
5.660000	0.260644
5.670000	0.306705
5.680000	0.332151
5.690000	0.336016
5.700000	0.323454
5.710000	0.287700
5.720000	0.236808
5.730000	0.172065
5.740000	0.103779
5.750000	0.036136
5.760000	-0.031183
5.770000	-0.087874
5.780000	-0.132968
5.790000	-0.175486
5.800000	-0.205764
5.810000	-0.225090
5.820000	-0.242162
5.830000	-0.247316
5.840000	-0.246994
5.850000	-0.245383
5.860000	-0.234109
5.870000	-0.217038
5.880000	-0.194168
5.890000	-0.171943
5.900000	-0.133291
5.910000	-0.090773
5.920000	-0.048899
5.930000	0.006503
5.940000	0.066736
5.950000	0.126648
5.960000	0.190747
5.970000	0.248404
5.980000	0.294465
5.990000	0.321521
6.000000	0.333761
6.010000	0.326997
6.020000	0.296719
6.030000	0.245505
6.040000	0.184949
6.050000	0.121494
6.060000	0.049987
6.070000	-0.015722
6.080000	-0.072735
6.090000	-0.127493
6.100000	-0.166789
6.110000	-0.197389
6.120000	-0.221869
6.130000	-0.241518
6.140000	-0.246027
6.150000	-0.246349
6.160000	-0.245705
6.170000	-0.236364
6.180000	-0.219615
6.190000	-0.202865
6.200000	-0.175164
6.210000	-0.141343
6.220000	-0.103013
6.230000	-0.062105
6.240000	-0.005737
6.250000	0.050631
6.260000	0.109898
6.270000	0.174964
6.280000	0.234231
6.290000	0.279648
6.300000	0.317334
6.310000	0.333439
6.320000	0.326031
6.330000	0.303484
6.340000	0.260644
6.350000	0.197511
6.360000	0.134701
6.370000	0.067059
6.380000	0.001027
6.390000	-0.064038
6.400000	-0.112354
6.410000	-0.155838
6.420000	-0.191592
6.430000	-0.213817
6.440000	-0.232821
6.450000	-0.246027
6.460000	-0.247316
6.470000	-0.244739
6.480000	-0.239585
6.490000	-0.226701
6.500000	-0.204798
6.510000	-0.179996
6.520000	-0.155194
6.530000	-0.116219
6.540000	-0.066937
6.550000	-0.021198
6.560000	0.032593
6.570000	0.097981
6.580000	0.158858
6.590000	0.215549
6.600000	0.269985
6.610000	0.310570
6.620000	0.331829
6.630000	0.327641
6.640000	0.308959
6.650000	0.272561
6.660000	0.215549
6.670000	0.150162
6.680000	0.082842
6.690000	0.017132
6.700000	-0.048899
6.710000	-0.100758
6.720000	-0.144564
6.730000	-0.183217
6.740000	-0.210596
6.750000	-0.228634
6.760000	-0.242484
6.770000	-0.247638
6.780000	-0.248282
6.790000	-0.237330
6.800000	-0.229922
6.810000	-0.212528
6.820000	-0.188370
6.830000	-0.157448
6.840000	-0.124272
6.850000	-0.084009
6.860000	-0.031506
6.870000	0.022286
6.880000	0.081553
6.890000	0.142109
6.900000	0.205886
6.910000	0.258067
6.920000	0.299618
6.930000	0.325709
6.940000	0.328286
6.950000	0.312825
6.960000	0.279970
6.970000	0.231010
6.980000	0.163368
6.990000	0.098303
7.000000	0.033560
7.010000	-0.034727
7.020000	-0.089484
7.030000	-0.135545
7.040000	-0.176131
7.050000	-0.204476
7.060000	-0.223480
7.070000	-0.241518
7.080000	-0.246994
7.090000	-0.244417
7.100000	-0.239907
7.110000	-0.232177
7.120000	-0.215105
7.130000	-0.189015
7.140000	-0.165823
7.150000	-0.133613
7.160000	-0.089484
7.170000	-0.043423
7.180000	0.006503
7.190000	0.067703
7.200000	0.129547
7.210000	0.190103
7.220000	0.242928
7.230000	0.288023
7.240000	0.323454
7.250000	0.330863
7.260000	0.318623
7.270000	0.287700
7.280000	0.240995
7.290000	0.184305
7.300000	0.115052
7.310000	0.049665
7.320000	-0.015722
7.330000	-0.077889
7.340000	-0.126848
7.350000	-0.162924
7.360000	-0.198034
7.370000	-0.221547
7.380000	-0.236364
7.390000	-0.242806
7.400000	-0.248926
7.410000	-0.243128
7.420000	-0.229922
7.430000	-0.218004
7.440000	-0.200288
7.450000	-0.170655
7.460000	-0.141343
7.470000	-0.103979
7.480000	-0.055341
7.490000	-0.003160
7.500000	0.051275
7.510000	0.114408
7.520000	0.175608
7.530000	0.232298
7.540000	0.279326
7.550000	0.309926
7.560000	0.327319
7.570000	0.324743
7.580000	0.298008
7.590000	0.252269
7.600000	0.195901
7.610000	0.130835
7.620000	0.065126
7.630000	-0.003482
7.640000	-0.060173
7.650000	-0.112998
7.660000	-0.157771
7.670000	-0.191269
7.680000	-0.217360
7.690000	-0.229922
7.700000	-0.240551
7.710000	-0.243128
7.720000	-0.241518
7.730000	-0.233143
7.740000	-0.221547
7.750000	-0.203832
7.760000	-0.179352
7.770000	-0.147463
7.780000	-0.112676
7.790000	-0.067581
7.800000	-0.017011
7.810000	0.040324
7.820000	0.100557
7.830000	0.162079
7.840000	0.220380
7.850000	0.270951
7.860000	0.306060
7.870000	0.326353
7.880000	0.324743
7.890000	0.306705
7.900000	0.266119
7.910000	0.213294
7.920000	0.151128
7.930000	0.080909
7.940000	0.011979
7.950000	-0.046000
7.960000	-0.101080
7.970000	-0.151651
7.980000	-0.184183
7.990000	-0.207375
8.000000	-0.229278
8.010000	-0.243128
8.020000	-0.245705
8.030000	-0.242484
8.040000	-0.238619
8.050000	-0.227667
8.060000	-0.205120
8.070000	-0.182573
8.080000	-0.158093
8.090000	-0.121373
8.100000	-0.077244
8.110000	-0.029251
8.120000	0.022608
8.130000	0.087029
8.140000	0.148873
8.150000	0.208463
8.160000	0.258067
8.170000	0.302839
8.180000	0.325065
8.190000	0.329252
8.200000	0.314757
8.210000	0.278681
8.220000	0.224890
8.230000	0.161757
8.240000	0.096048
8.250000	0.027118
8.260000	-0.035371
8.270000	-0.087552
8.280000	-0.139733
8.290000	-0.179352
8.300000	-0.203187
8.310000	-0.222514
8.320000	-0.239907
8.330000	-0.244095
8.340000	-0.243450
8.350000	-0.240874
8.360000	-0.229600
8.370000	-0.209951
8.380000	-0.193202
8.390000	-0.162924
8.400000	-0.125882
8.410000	-0.087874
8.420000	-0.041813
8.430000	0.013911
8.440000	0.074145
8.450000	0.129869
8.460000	0.191391
8.470000	0.245827
8.480000	0.291888
8.490000	0.318945
8.500000	0.325387
8.510000	0.314435
8.520000	0.283513
8.530000	0.233909
8.540000	0.173353
8.550000	0.107966
8.560000	0.044511
8.570000	-0.020554
8.580000	-0.080465
8.590000	-0.126526
8.600000	-0.163246
8.610000	-0.196745
8.620000	-0.222514
8.630000	-0.233143
8.640000	-0.240874
8.650000	-0.248282
8.660000	-0.241518
8.670000	-0.232499
8.680000	-0.215105
8.690000	-0.195779
8.700000	-0.168722
8.710000	-0.132002
8.720000	-0.097215
8.730000	-0.054053
8.740000	0.001349
8.750000	0.058040
8.760000	0.114408
8.770000	0.174319
8.780000	0.233909
8.790000	0.280614
8.800000	0.307349
8.810000	0.322810
8.820000	0.320555
8.830000	0.289955
8.840000	0.245505
8.850000	0.192035
8.860000	0.127614
8.870000	0.057718
8.880000	-0.005737
8.890000	-0.061783
8.900000	-0.115575
8.910000	-0.158093
8.920000	-0.187404
8.930000	-0.212850
8.940000	-0.233143
8.950000	-0.240551
8.960000	-0.240874
8.970000	-0.239263
8.980000	-0.233787
8.990000	-0.219615
9.000000	-0.197389
9.010000	-0.173232
9.020000	-0.147141
9.030000	-0.107200
9.040000	-0.061139
9.050000	-0.014756
9.060000	0.040002
9.070000	0.104101
9.080000	0.163046
9.090000	0.215871
9.100000	0.267408
9.110000	0.306383
9.120000	0.324420
9.130000	0.318300
9.140000	0.297364
9.150000	0.260966
9.160000	0.202020
9.170000	0.138566
9.180000	0.075111
9.190000	0.009402
9.200000	-0.050510
9.210000	-0.103657
9.220000	-0.147463
9.230000	-0.179996
9.240000	-0.208341
9.250000	-0.227345
9.260000	-0.232499
9.270000	-0.239263
9.280000	-0.242806
9.290000	-0.229600
9.300000	-0.219615
9.310000	-0.205764
9.320000	-0.181606
9.330000	-0.149396
9.340000	-0.113320
9.350000	-0.075956
9.360000	-0.023453
9.370000	0.031949
9.380000	0.087673
9.390000	0.148229
9.400000	0.209107
9.410000	0.257423
9.420000	0.291566
9.430000	0.316690
9.440000	0.321199
9.450000	0.303161
9.460000	0.265475
9.470000	0.217159
9.480000	0.159181
9.490000	0.090250
9.500000	0.022286
9.510000	-0.036015
9.520000	-0.089806
9.530000	-0.134901
9.540000	-0.174198
9.550000	-0.200610
9.560000	-0.220903
9.570000	-0.230566
9.580000	-0.240229
9.590000	-0.241840
9.600000	-0.232821
9.610000	-0.223480
9.620000	-0.203832
9.630000	-0.184505
9.640000	-0.158093
9.650000	-0.122661
9.660000	-0.082076
9.670000	-0.039880
9.680000	0.015522
9.690000	0.076077
9.700000	0.134056
9.710000	0.190103
9.720000	0.243250
9.730000	0.284801
9.740000	0.315079
9.750000	0.318945
9.760000	0.305416
9.770000	0.278037
9.780000	0.230044
9.790000	0.170132
9.800000	0.103779
9.810000	0.037425
9.820000	-0.021842
9.830000	-0.076922
9.840000	-0.127815
9.850000	-0.165501
9.860000	-0.195457
9.870000	-0.214139
9.880000	-0.230888
9.890000	-0.239263
9.900000	-0.240229
9.910000	-0.233143
9.920000	-0.225090
9.930000	-0.214139
9.940000	-0.189015
9.950000	-0.164857
9.960000	-0.133291
9.970000	-0.093672
9.980000	-0.046644
9.990000	0.001671

