LabVIEW Measurement	
Writer_Version	2
Reader_Version	2
Separator	Tab
Decimal_Separator	.
Multi_Headings	Yes
X_Columns	One
Time_Pref	Absolute
Operator	physlab121
Date	2019/04/21
Time	13:14:15.9375538499424540233
***End_of_Header***	
	
Channels	1	
Samples	1000	
Date	2019/04/21	
Time	13:14:15.9375538499424540233	
Y_Unit_Label	Volts	
X_Dimension	Time	
X0	0.0000000000000000E+0	
Delta_X	0.010000	
***End_of_Header***		
X_Value	Voltage_0	Comment
0.000000	0.518650
0.010000	0.807901
0.020000	0.995688
0.030000	1.073960
0.040000	1.064941
0.050000	0.934166
0.060000	0.661665
0.070000	0.336660
0.080000	0.020998
0.090000	-0.226057
0.100000	-0.406757
0.110000	-0.522071
0.120000	-0.592289
0.130000	-0.628043
0.140000	-0.642860
0.150000	-0.638995
0.160000	-0.622889
0.170000	-0.598732
0.180000	-0.555570
0.190000	-0.503067
0.200000	-0.413522
0.210000	-0.290800
0.220000	-0.099792
0.230000	0.162079
0.240000	0.481608
0.250000	0.778589
0.260000	0.975718
0.270000	1.063008
0.280000	1.065585
0.290000	0.939320
0.300000	0.688399
0.310000	0.365650
0.320000	0.049021
0.330000	-0.203832
0.340000	-0.390330
0.350000	-0.510797
0.360000	-0.581338
0.370000	-0.622245
0.380000	-0.638350
0.390000	-0.635774
0.400000	-0.623856
0.410000	-0.595188
0.420000	-0.556214
0.430000	-0.503067
0.440000	-0.420286
0.450000	-0.302718
0.460000	-0.120406
0.470000	0.136633
0.480000	0.445210
0.490000	0.745734
0.500000	0.954781
0.510000	1.057532
0.520000	1.065907
0.530000	0.953170
0.540000	0.712879
0.550000	0.391418
0.560000	0.079621
0.570000	-0.183217
0.580000	-0.372292
0.590000	-0.498235
0.600000	-0.572963
0.610000	-0.613226
0.620000	-0.634485
0.630000	-0.632875
0.640000	-0.618380
0.650000	-0.596477
0.660000	-0.555570
0.670000	-0.505321
0.680000	-0.429305
0.690000	-0.310770
0.700000	-0.144242
0.710000	0.105711
0.720000	0.410745
0.730000	0.712235
0.740000	0.938675
0.750000	1.046259
0.760000	1.066874
0.770000	0.962511
0.780000	0.731884
0.790000	0.418475
0.800000	0.103456
0.810000	-0.158415
0.820000	-0.352966
0.830000	-0.485673
0.840000	-0.562334
0.850000	-0.609683
0.860000	-0.630620
0.870000	-0.628687
0.880000	-0.620635
0.890000	-0.596799
0.900000	-0.557180
0.910000	-0.510153
0.920000	-0.436069
0.930000	-0.323654
0.940000	-0.161636
0.950000	0.079621
0.960000	0.378212
0.970000	0.680991
0.980000	0.914195
0.990000	1.036918
1.000000	1.061398
1.010000	0.974429
1.020000	0.751854
1.030000	0.448753
1.040000	0.129869
1.050000	-0.135867
1.060000	-0.338793
1.070000	-0.472467
1.080000	-0.557180
1.090000	-0.603563
1.100000	-0.621279
1.110000	-0.628687
1.120000	-0.618058
1.130000	-0.594222
1.140000	-0.562334
1.150000	-0.510475
1.160000	-0.442189
1.170000	-0.332029
1.180000	-0.175808
1.190000	0.050953
1.200000	0.347934
1.210000	0.650069
1.220000	0.894225
1.230000	1.025966
1.240000	1.061076
1.250000	0.982804
1.260000	0.771180
1.270000	0.472589
1.280000	0.160791
1.290000	-0.115897
1.300000	-0.317212
1.310000	-0.458938
1.320000	-0.548483
1.330000	-0.594866
1.340000	-0.621923
1.350000	-0.628043
1.360000	-0.612904
1.370000	-0.595833
1.380000	-0.560079
1.390000	-0.512408
1.400000	-0.445088
1.410000	-0.339438
1.420000	-0.189981
1.430000	0.029694
1.440000	0.317978
1.450000	0.619147
1.460000	0.868456
1.470000	1.012760
1.480000	1.054956
1.490000	0.988280
1.500000	0.790185
1.510000	0.495458
1.520000	0.183338
1.530000	-0.089806
1.540000	-0.302073
1.550000	-0.441867
1.560000	-0.535277
1.570000	-0.591001
1.580000	-0.612904
1.590000	-0.620635
1.600000	-0.611616
1.610000	-0.591645
1.620000	-0.563300
1.630000	-0.513696
1.640000	-0.446698
1.650000	-0.352000
1.660000	-0.203509
1.670000	0.007791
1.680000	0.284801
1.690000	0.587580
1.700000	0.844943
1.710000	0.996654
1.720000	1.051412
1.730000	0.994722
1.740000	0.802747
1.750000	0.521227
1.760000	0.207496
1.770000	-0.069514
1.780000	-0.279848
1.790000	-0.431881
1.800000	-0.527546
1.810000	-0.578439
1.820000	-0.610649
1.830000	-0.617091
1.840000	-0.608395
1.850000	-0.591967
1.860000	-0.558791
1.870000	-0.514018
1.880000	-0.452496
1.890000	-0.355865
1.900000	-0.217038
1.910000	-0.014434
1.920000	0.257745
1.930000	0.557302
1.940000	0.818208
1.950000	0.986991
1.960000	1.044326
1.970000	0.999553
1.980000	0.821751
1.990000	0.541841
2.000000	0.234553
2.010000	-0.045678
2.020000	-0.261166
2.030000	-0.415454
2.040000	-0.516917
2.050000	-0.571353
2.060000	-0.604529
2.070000	-0.614193
2.080000	-0.606462
2.090000	-0.590679
2.100000	-0.559435
2.110000	-0.516273
2.120000	-0.457328
2.130000	-0.362951
2.140000	-0.231210
2.150000	-0.033438
2.160000	0.229077
2.170000	0.525736
2.180000	0.794050
2.190000	0.969598
2.200000	1.035629
2.210000	1.001164
2.220000	0.834957
2.230000	0.560846
2.240000	0.259355
2.250000	-0.025063
2.260000	-0.246027
2.270000	-0.401604
2.280000	-0.505965
2.290000	-0.564266
2.300000	-0.599054
2.310000	-0.608395
2.320000	-0.602275
2.330000	-0.589713
2.340000	-0.562012
2.350000	-0.516595
2.360000	-0.460871
2.370000	-0.370360
2.380000	-0.242484
2.390000	-0.055985
2.400000	0.202987
2.410000	0.494492
2.420000	0.766027
2.430000	0.951882
2.440000	1.028221
2.450000	1.004707
2.460000	0.845265
2.470000	0.584037
2.480000	0.283191
2.490000	-0.004127
2.500000	-0.224768
2.510000	-0.390008
2.520000	-0.497269
2.530000	-0.557180
2.540000	-0.593578
2.550000	-0.604529
2.560000	-0.604529
2.570000	-0.585203
2.580000	-0.561367
2.590000	-0.517883
2.600000	-0.459582
2.610000	-0.378734
2.620000	-0.252147
2.630000	-0.071124
2.640000	0.182050
2.650000	0.464214
2.660000	0.739936
2.670000	0.932878
2.680000	1.020812
2.690000	1.003419
2.700000	0.856216
2.710000	0.607551
2.720000	0.300585
2.730000	0.019387
2.740000	-0.209629
2.750000	-0.377124
2.760000	-0.483418
2.770000	-0.551382
2.780000	-0.586492
2.790000	-0.599376
2.800000	-0.598732
2.810000	-0.581982
2.820000	-0.558791
2.830000	-0.520460
2.840000	-0.461193
2.850000	-0.380345
2.860000	-0.260844
2.870000	-0.082398
2.880000	0.152416
2.890000	0.438768
2.900000	0.716745
2.910000	0.911941
2.920000	1.009861
2.930000	1.002130
2.940000	0.863947
2.950000	0.622046
2.960000	0.322166
2.970000	0.040324
2.980000	-0.189015
2.990000	-0.362951
3.000000	-0.471822
3.010000	-0.543330
3.020000	-0.582626
3.030000	-0.599698
3.040000	-0.595510
3.050000	-0.584237
3.060000	-0.560079
3.070000	-0.518205
3.080000	-0.466669
3.090000	-0.387431
3.100000	-0.270507
3.110000	-0.103979
3.120000	0.128903
3.130000	0.412355
3.140000	0.685178
3.150000	0.896157
3.160000	0.998587
3.170000	0.998909
3.180000	0.875543
3.190000	0.637829
3.200000	0.346646
3.210000	0.064482
3.220000	-0.173554
3.230000	-0.344591
3.240000	-0.460549
3.250000	-0.536565
3.260000	-0.572963
3.270000	-0.590357
3.280000	-0.593900
3.290000	-0.577795
3.300000	-0.558146
3.310000	-0.519494
3.320000	-0.464736
3.330000	-0.391618
3.340000	-0.281137
3.350000	-0.116863
3.360000	0.105711
3.370000	0.382721
3.380000	0.659732
3.390000	0.870389
3.400000	0.986025
3.410000	0.993111
3.420000	0.879730
3.430000	0.653934
3.440000	0.368227
3.450000	0.082520
3.460000	-0.152295
3.470000	-0.329130
3.480000	-0.451852
3.490000	-0.527224
3.500000	-0.567810
3.510000	-0.587136
3.520000	-0.589713
3.530000	-0.577473
3.540000	-0.552349
3.550000	-0.520782
3.560000	-0.467957
3.570000	-0.393551
3.580000	-0.288223
3.590000	-0.130714
3.600000	0.089928
3.610000	0.357919
3.620000	0.633319
3.630000	0.853962
3.640000	0.973463
3.650000	0.991179
3.660000	0.891004
3.670000	0.667785
3.680000	0.387875
3.690000	0.106355
3.700000	-0.136834
3.710000	-0.315280
3.720000	-0.436391
3.730000	-0.517561
3.740000	-0.562012
3.750000	-0.580694
3.760000	-0.584881
3.770000	-0.573930
3.780000	-0.550738
3.790000	-0.520138
3.800000	-0.471822
3.810000	-0.396450
3.820000	-0.294343
3.830000	-0.144242
3.840000	0.072212
3.850000	0.332473
3.860000	0.609161
3.870000	0.832058
3.880000	0.961223
3.890000	0.988280
3.900000	0.892614
3.910000	0.681957
3.920000	0.407524
3.930000	0.122461
3.940000	-0.116541
3.950000	-0.301107
3.960000	-0.428983
3.970000	-0.507254
3.980000	-0.557180
3.990000	-0.581660
4.000000	-0.579083
4.010000	-0.573930
4.020000	-0.553959
4.030000	-0.517883
4.040000	-0.471500
4.050000	-0.403536
4.060000	-0.298852
4.070000	-0.155516
4.080000	0.047732
4.090000	0.309926
4.100000	0.582105
4.110000	0.812732
4.120000	0.949305
4.130000	0.981193
4.140000	0.900345
4.150000	0.697418
4.160000	0.425884
4.170000	0.148229
4.180000	-0.099792
4.190000	-0.285968
4.200000	-0.411911
4.210000	-0.501456
4.220000	-0.547839
4.230000	-0.571675
4.240000	-0.579083
4.250000	-0.569420
4.260000	-0.546229
4.270000	-0.517239
4.280000	-0.470212
4.290000	-0.400637
4.300000	-0.309482
4.310000	-0.164857
4.320000	0.034848
4.330000	0.285768
4.340000	0.558913
4.350000	0.794694
4.360000	0.932878
4.370000	0.977650
4.380000	0.902277
4.390000	0.708048
4.400000	0.446498
4.410000	0.162402
4.420000	-0.083686
4.430000	-0.270507
4.440000	-0.406113
4.450000	-0.493403
4.460000	-0.541075
4.470000	-0.568454
4.480000	-0.574896
4.490000	-0.564588
4.500000	-0.549127
4.510000	-0.518528
4.520000	-0.471178
4.530000	-0.409012
4.540000	-0.316568
4.550000	-0.174198
4.560000	0.019709
4.570000	0.262898
4.580000	0.536366
4.590000	0.769248
4.600000	0.923859
4.610000	0.968309
4.620000	0.904532
4.630000	0.722865
4.640000	0.459705
4.650000	0.184627
4.660000	-0.064360
4.670000	-0.259233
4.680000	-0.392907
4.690000	-0.479231
4.700000	-0.535921
4.710000	-0.561690
4.720000	-0.567810
4.730000	-0.563944
4.740000	-0.547839
4.750000	-0.514662
4.760000	-0.473755
4.770000	-0.407724
4.780000	-0.315602
4.790000	-0.188048
4.800000	0.002960
4.810000	0.241317
4.820000	0.507376
4.830000	0.749599
4.840000	0.903888
4.850000	0.962833
4.860000	0.904210
4.870000	0.728663
4.880000	0.479675
4.890000	0.199766
4.900000	-0.043745
4.910000	-0.241196
4.920000	-0.381633
4.930000	-0.470856
4.940000	-0.526258
4.950000	-0.557502
4.960000	-0.562334
4.970000	-0.561045
4.980000	-0.545262
4.990000	-0.515951
5.000000	-0.471178
5.010000	-0.412555
5.020000	-0.326231
5.030000	-0.194168
5.040000	-0.014756
5.050000	0.220380
5.060000	0.489660
5.070000	0.726408
5.080000	0.889715
5.090000	0.956069
5.100000	0.905499
5.110000	0.739614
5.120000	0.493848
5.130000	0.220058
5.140000	-0.029251
5.150000	-0.227345
5.160000	-0.370037
5.170000	-0.462804
5.180000	-0.522715
5.190000	-0.553315
5.200000	-0.563622
5.210000	-0.555892
5.220000	-0.544296
5.230000	-0.512408
5.240000	-0.476010
5.250000	-0.410945
5.260000	-0.329774
5.270000	-0.203509
5.280000	-0.030539
5.290000	0.204275
5.300000	0.464536
5.310000	0.708692
5.320000	0.874254
5.330000	0.947050
5.340000	0.906465
5.350000	0.751854
5.360000	0.510919
5.370000	0.239385
5.380000	-0.013146
5.390000	-0.213173
5.400000	-0.357153
5.410000	-0.459260
5.420000	-0.514984
5.430000	-0.546229
5.440000	-0.560723
5.450000	-0.557824
5.460000	-0.540753
5.470000	-0.517239
5.480000	-0.473755
5.490000	-0.414166
5.500000	-0.333640
5.510000	-0.210918
5.520000	-0.033116
5.530000	0.193002
5.540000	0.453585
5.550000	0.698063
5.560000	0.870067
5.570000	0.944151
5.580000	0.911619
5.590000	0.756364
5.600000	0.524126
5.610000	0.253235
5.620000	0.004892
5.630000	-0.201255
5.640000	-0.348456
5.650000	-0.445410
5.660000	-0.511763
5.670000	-0.543330
5.680000	-0.553637
5.690000	-0.555570
5.700000	-0.539142
5.710000	-0.516595
5.720000	-0.476976
5.730000	-0.418031
5.740000	-0.339115
5.750000	-0.221225
5.760000	-0.050832
5.770000	0.171098
5.780000	0.428460
5.790000	0.676481
5.800000	0.852029
5.810000	0.940930
5.820000	0.911619
5.830000	0.770858
5.840000	0.541519
5.850000	0.270629
5.860000	0.019709
5.870000	-0.185472
5.880000	-0.339115
5.890000	-0.440578
5.900000	-0.500812
5.910000	-0.539786
5.920000	-0.552671
5.930000	-0.549450
5.940000	-0.540431
5.950000	-0.515307
5.960000	-0.474077
5.970000	-0.423829
5.980000	-0.344269
5.990000	-0.227023
6.000000	-0.069514
6.010000	0.146618
6.020000	0.400437
6.030000	0.644915
6.040000	0.832703
6.050000	0.927402
6.060000	0.909686
6.070000	0.781166
6.080000	0.553759
6.090000	0.290921
6.100000	0.039358
6.110000	-0.171621
6.120000	-0.325587
6.130000	-0.428338
6.140000	-0.495336
6.150000	-0.533344
6.160000	-0.547839
6.170000	-0.551704
6.180000	-0.535921
6.190000	-0.512730
6.200000	-0.479553
6.210000	-0.424473
6.220000	-0.349101
6.230000	-0.241840
6.240000	-0.082076
6.250000	0.125360
6.260000	0.373702
6.270000	0.625589
6.280000	0.815631
6.290000	0.916128
6.300000	0.912907
6.310000	0.785997
6.320000	0.570831
6.330000	0.311214
6.340000	0.055141
6.350000	-0.155516
6.360000	-0.309482
6.370000	-0.421574
6.380000	-0.486961
6.390000	-0.525292
6.400000	-0.545584
6.410000	-0.544618
6.420000	-0.532700
6.430000	-0.512730
6.440000	-0.476332
6.450000	-0.424473
6.460000	-0.352000
6.470000	-0.243772
6.480000	-0.093350
6.490000	0.108288
6.500000	0.355342
6.510000	0.604330
6.520000	0.798559
6.530000	0.909042
6.540000	0.905821
6.550000	0.794050
6.560000	0.586936
6.570000	0.324420
6.580000	0.074467
6.590000	-0.142632
6.600000	-0.298852
6.610000	-0.411267
6.620000	-0.481163
6.630000	-0.519816
6.640000	-0.542041
6.650000	-0.540753
6.660000	-0.533022
6.670000	-0.511441
6.680000	-0.473755
6.690000	-0.427050
6.700000	-0.355865
6.710000	-0.250537
6.720000	-0.108166
6.730000	0.097014
6.740000	0.333439
6.750000	0.578561
6.760000	0.780199
6.770000	0.892292
6.780000	0.903566
6.790000	0.798237
6.800000	0.594989
6.810000	0.345035
6.820000	0.087673
6.830000	-0.124594
6.840000	-0.285968
6.850000	-0.403536
6.860000	-0.472467
6.870000	-0.517561
6.880000	-0.538820
6.890000	-0.538176
6.900000	-0.531090
6.910000	-0.510153
6.920000	-0.475043
6.930000	-0.426084
6.940000	-0.359086
6.950000	-0.255368
6.960000	-0.116863
6.970000	0.080909
6.980000	0.314113
6.990000	0.556658
7.000000	0.761195
7.010000	0.877797
7.020000	0.898090
7.030000	0.800814
7.040000	0.606585
7.050000	0.359530
7.060000	0.107644
7.070000	-0.110099
7.080000	-0.272440
7.090000	-0.390008
7.100000	-0.467635
7.110000	-0.507898
7.120000	-0.533022
7.130000	-0.537532
7.140000	-0.524648
7.150000	-0.507576
7.160000	-0.474721
7.170000	-0.426084
7.180000	-0.361663
7.190000	-0.262455
7.200000	-0.123950
7.210000	0.061583
7.220000	0.296719
7.230000	0.536044
7.240000	0.738648
7.250000	0.868778
7.260000	0.890360
7.270000	0.804679
7.280000	0.618180
7.290000	0.371770
7.300000	0.127614
7.310000	-0.094316
7.320000	-0.261488
7.330000	-0.380345
7.340000	-0.459582
7.350000	-0.502100
7.360000	-0.528191
7.370000	-0.535921
7.380000	-0.523359
7.390000	-0.504999
7.400000	-0.475366
7.410000	-0.425439
7.420000	-0.362629
7.430000	-0.267930
7.440000	-0.132324
7.450000	0.049987
7.460000	0.275460
7.470000	0.519294
7.480000	0.722543
7.490000	0.852995
7.500000	0.885528
7.510000	0.804357
7.520000	0.622046
7.530000	0.387875
7.540000	0.137922
7.550000	-0.083364
7.560000	-0.248604
7.570000	-0.371004
7.580000	-0.453140
7.590000	-0.496624
7.600000	-0.523681
7.610000	-0.527224
7.620000	-0.524003
7.630000	-0.502744
7.640000	-0.470212
7.650000	-0.428983
7.660000	-0.364240
7.670000	-0.267930
7.680000	-0.141343
7.690000	0.039680
7.700000	0.259677
7.710000	0.500612
7.720000	0.709014
7.730000	0.839789
7.740000	0.880374
7.750000	0.805968
7.760000	0.636862
7.770000	0.398505
7.780000	0.154993
7.790000	-0.066937
7.800000	-0.235398
7.810000	-0.363917
7.820000	-0.443799
7.830000	-0.493403
7.840000	-0.515951
7.850000	-0.525936
7.860000	-0.518528
7.870000	-0.501134
7.880000	-0.470534
7.890000	-0.426728
7.900000	-0.361019
7.910000	-0.277271
7.920000	-0.146497
7.930000	0.024541
7.940000	0.246149
7.950000	0.479675
7.960000	0.689688
7.970000	0.832058
7.980000	0.872644
7.990000	0.809189
8.000000	0.643949
8.010000	0.412033
8.020000	0.170132
8.030000	-0.051476
8.040000	-0.226701
8.050000	-0.349745
8.060000	-0.432526
8.070000	-0.487606
8.080000	-0.510797
8.090000	-0.518205
8.100000	-0.518528
8.110000	-0.498557
8.120000	-0.470534
8.130000	-0.428016
8.140000	-0.365206
8.150000	-0.280492
8.160000	-0.156160
8.170000	0.015844
8.180000	0.225212
8.190000	0.459705
8.200000	0.674871
8.210000	0.814987
8.220000	0.869423
8.230000	0.808223
8.240000	0.647814
8.250000	0.426528
8.260000	0.179795
8.270000	-0.038592
8.280000	-0.211562
8.290000	-0.341692
8.300000	-0.427694
8.310000	-0.476332
8.320000	-0.507576
8.330000	-0.517883
8.340000	-0.511119
8.350000	-0.498879
8.360000	-0.469246
8.370000	-0.426084
8.380000	-0.366816
8.390000	-0.284036
8.400000	-0.160669
8.410000	0.002315
8.420000	0.213616
8.430000	0.444888
8.440000	0.654256
8.450000	0.806290
8.460000	0.859760
8.470000	0.810799
8.480000	0.658444
8.490000	0.435547
8.500000	0.196867
8.510000	-0.019910
8.520000	-0.203509
8.530000	-0.331063
8.540000	-0.416098
8.550000	-0.474721
8.560000	-0.501456
8.570000	-0.515629
8.580000	-0.513696
8.590000	-0.495014
8.600000	-0.469246
8.610000	-0.424151
8.620000	-0.370037
8.630000	-0.287579
8.640000	-0.166467
8.650000	-0.008314
8.660000	0.195901
8.670000	0.429427
8.680000	0.639439
8.690000	0.789540
8.700000	0.853962
8.710000	0.807578
8.720000	0.663919
8.730000	0.449719
8.740000	0.208140
8.750000	-0.010891
8.760000	-0.188693
8.770000	-0.323010
8.780000	-0.409656
8.790000	-0.464736
8.800000	-0.498557
8.810000	-0.510153
8.820000	-0.505965
8.830000	-0.492759
8.840000	-0.467957
8.850000	-0.426728
8.860000	-0.372936
8.870000	-0.290800
8.880000	-0.173232
8.890000	-0.017655
8.900000	0.181728
8.910000	0.412677
8.920000	0.623012
8.930000	0.779877
8.940000	0.847842
8.950000	0.806934
8.960000	0.671006
8.970000	0.460993
8.980000	0.223602
8.990000	0.001671
9.000000	-0.178385
9.010000	-0.313347
9.020000	-0.402570
9.030000	-0.459582
9.040000	-0.493726
9.050000	-0.505965
9.060000	-0.504355
9.070000	-0.493403
9.080000	-0.465058
9.090000	-0.425439
9.100000	-0.372292
9.110000	-0.296276
9.120000	-0.180318
9.130000	-0.028607
9.140000	0.166589
9.150000	0.396250
9.160000	0.608517
9.170000	0.764416
9.180000	0.840433
9.190000	0.807256
9.200000	0.677126
9.210000	0.470012
9.220000	0.233587
9.230000	0.016166
9.240000	-0.164857
9.250000	-0.304972
9.260000	-0.394839
9.270000	-0.456039
9.280000	-0.491471
9.290000	-0.504033
9.300000	-0.500812
9.310000	-0.491149
9.320000	-0.466025
9.330000	-0.426084
9.340000	-0.374547
9.350000	-0.299174
9.360000	-0.187404
9.370000	-0.039558
9.380000	0.155315
9.390000	0.380789
9.400000	0.592090
9.410000	0.755719
9.420000	0.833669
9.430000	0.808867
9.440000	0.683890
9.450000	0.483218
9.460000	0.248082
9.470000	0.028406
9.480000	-0.157126
9.490000	-0.296920
9.500000	-0.388075
9.510000	-0.451530
9.520000	-0.485673
9.530000	-0.498235
9.540000	-0.503389
9.550000	-0.487928
9.560000	-0.465380
9.570000	-0.428983
9.580000	-0.373581
9.590000	-0.301107
9.600000	-0.196423
9.610000	-0.046322
9.620000	0.139854
9.630000	0.362751
9.640000	0.578884
9.650000	0.741869
9.660000	0.828515
9.670000	0.808223
9.680000	0.690332
9.690000	0.496102
9.700000	0.263543
9.710000	0.039035
9.720000	-0.143276
9.730000	-0.282425
9.740000	-0.383244
9.750000	-0.446376
9.760000	-0.479231
9.770000	-0.497913
9.780000	-0.497269
9.790000	-0.483740
9.800000	-0.464736
9.810000	-0.430593
9.820000	-0.374225
9.830000	-0.306261
9.840000	-0.202221
9.850000	-0.055663
9.860000	0.128581
9.870000	0.347934
9.880000	0.562456
9.890000	0.727374
9.900000	0.819818
9.910000	0.805968
9.920000	0.695164
9.930000	0.500612
9.940000	0.272561
9.950000	0.056107
9.960000	-0.135545
9.970000	-0.272118
9.980000	-0.373903
9.990000	-0.442189

