LabVIEW Measurement	
Writer_Version	2
Reader_Version	2
Separator	Tab
Decimal_Separator	.
Multi_Headings	Yes
X_Columns	One
Time_Pref	Absolute
Operator	physlab121
Date	2019/04/21
Time	14:13:05.9780374499424330611
***End_of_Header***	
	
Channels	1	
Samples	1000	
Date	2019/04/21	
Time	14:13:05.9780374499424330611	
Y_Unit_Label	Volts	
X_Dimension	Time	
X0	0.0000000000000000E+0	
Delta_X	0.010000	
***End_of_Header***		
X_Value	Voltage_0	Comment
0.000000	1.115189
0.010000	1.076859
0.020000	0.990857
0.030000	0.843654
0.040000	0.640728
0.050000	0.413966
0.060000	0.177541
0.070000	-0.044390
0.080000	-0.227989
0.090000	-0.374547
0.100000	-0.486961
0.110000	-0.566843
0.120000	-0.619990
0.130000	-0.653489
0.140000	-0.672816
0.150000	-0.686022
0.160000	-0.683445
0.170000	-0.677325
0.180000	-0.669594
0.190000	-0.654133
0.200000	-0.634485
0.210000	-0.613870
0.220000	-0.593900
0.230000	-0.571353
0.240000	-0.543652
0.250000	-0.512085
0.260000	-0.485351
0.270000	-0.448309
0.280000	-0.406435
0.290000	-0.354576
0.300000	-0.292088
0.310000	-0.210596
0.320000	-0.109133
0.330000	0.019065
0.340000	0.178507
0.350000	0.364684
0.360000	0.568254
0.370000	0.774402
0.380000	0.957358
0.390000	1.082657
0.400000	1.146756
0.410000	1.158030
0.420000	1.144179
0.430000	1.116800
0.440000	1.073638
0.450000	0.985059
0.460000	0.838501
0.470000	0.636540
0.480000	0.406557
0.490000	0.173675
0.500000	-0.043745
0.510000	-0.229600
0.520000	-0.377124
0.530000	-0.487606
0.540000	-0.566521
0.550000	-0.620313
0.560000	-0.654456
0.570000	-0.673782
0.580000	-0.683123
0.590000	-0.681512
0.600000	-0.674748
0.610000	-0.665085
0.620000	-0.648980
0.630000	-0.631586
0.640000	-0.612582
0.650000	-0.592934
0.660000	-0.570386
0.670000	-0.542363
0.680000	-0.515307
0.690000	-0.484062
0.700000	-0.447665
0.710000	-0.404503
0.720000	-0.352000
0.730000	-0.288223
0.740000	-0.206730
0.750000	-0.105590
0.760000	0.023897
0.770000	0.178829
0.780000	0.365006
0.790000	0.569542
0.800000	0.775690
0.810000	0.951882
0.820000	1.077181
0.830000	1.139669
0.840000	1.152554
0.850000	1.140958
0.860000	1.117122
0.870000	1.071061
0.880000	0.981515
0.890000	0.832058
0.900000	0.628166
0.910000	0.395928
0.920000	0.164334
0.930000	-0.051476
0.940000	-0.232177
0.950000	-0.374869
0.960000	-0.484385
0.970000	-0.563622
0.980000	-0.619024
0.990000	-0.652523
1.000000	-0.673138
1.010000	-0.679902
1.020000	-0.678613
1.030000	-0.674748
1.040000	-0.660253
1.050000	-0.646081
1.060000	-0.631586
1.070000	-0.611616
1.080000	-0.590357
1.090000	-0.568132
1.100000	-0.539142
1.110000	-0.511441
1.120000	-0.479553
1.130000	-0.443477
1.140000	-0.402570
1.150000	-0.351033
1.160000	-0.286290
1.170000	-0.206730
1.180000	-0.104623
1.190000	0.024863
1.200000	0.182050
1.210000	0.363717
1.220000	0.567610
1.230000	0.771180
1.240000	0.950915
1.250000	1.075248
1.260000	1.140314
1.270000	1.156419
1.280000	1.141924
1.290000	1.115834
1.300000	1.067196
1.310000	0.974429
1.320000	0.824328
1.330000	0.623656
1.340000	0.392385
1.350000	0.156926
1.360000	-0.054375
1.370000	-0.235720
1.380000	-0.377768
1.390000	-0.484707
1.400000	-0.562334
1.410000	-0.618058
1.420000	-0.653167
1.430000	-0.671849
1.440000	-0.679258
1.450000	-0.676681
1.460000	-0.669917
1.470000	-0.660576
1.480000	-0.647047
1.490000	-0.629654
1.500000	-0.613548
1.510000	-0.590357
1.520000	-0.566843
1.530000	-0.539464
1.540000	-0.510153
1.550000	-0.475688
1.560000	-0.441545
1.570000	-0.398383
1.580000	-0.347812
1.590000	-0.284680
1.600000	-0.204476
1.610000	-0.103335
1.620000	0.026795
1.630000	0.182694
1.640000	0.365328
1.650000	0.566644
1.660000	0.767637
1.670000	0.944151
1.680000	1.070739
1.690000	1.140314
1.700000	1.153842
1.710000	1.140636
1.720000	1.113901
1.730000	1.063330
1.740000	0.966377
1.750000	0.816275
1.760000	0.614315
1.770000	0.384010
1.780000	0.153061
1.790000	-0.060495
1.800000	-0.241196
1.810000	-0.379056
1.820000	-0.484707
1.830000	-0.562012
1.840000	-0.613226
1.850000	-0.649624
1.860000	-0.669594
1.870000	-0.678291
1.880000	-0.677325
1.890000	-0.670239
1.900000	-0.659609
1.910000	-0.643504
1.920000	-0.626755
1.930000	-0.607428
1.940000	-0.586814
1.950000	-0.563300
1.960000	-0.539464
1.970000	-0.510797
1.980000	-0.476976
1.990000	-0.438324
2.000000	-0.394517
2.010000	-0.341692
2.020000	-0.279204
2.030000	-0.199322
2.040000	-0.100114
2.050000	0.028728
2.060000	0.184949
2.070000	0.368227
2.080000	0.571797
2.090000	0.775368
2.100000	0.951560
2.110000	1.075893
2.120000	1.138703
2.130000	1.154486
2.140000	1.145790
2.150000	1.120021
2.160000	1.068162
2.170000	0.966054
2.180000	0.808223
2.190000	0.603041
2.200000	0.373058
2.210000	0.145330
2.220000	-0.063716
2.230000	-0.239907
2.240000	-0.378734
2.250000	-0.484707
2.260000	-0.562978
2.270000	-0.615803
2.280000	-0.650912
2.290000	-0.668950
2.300000	-0.677003
2.310000	-0.674426
2.320000	-0.667340
2.330000	-0.655100
2.340000	-0.641571
2.350000	-0.626433
2.360000	-0.609039
2.370000	-0.586492
2.380000	-0.562334
2.390000	-0.535277
2.400000	-0.503389
2.410000	-0.470856
2.420000	-0.437357
2.430000	-0.394195
2.440000	-0.343947
2.450000	-0.276305
2.460000	-0.195135
2.470000	-0.093994
2.480000	0.034204
2.490000	0.191391
2.500000	0.371448
2.510000	0.572119
2.520000	0.772147
2.530000	0.945440
2.540000	1.072349
2.550000	1.140314
2.560000	1.157707
2.570000	1.146434
2.580000	1.119055
2.590000	1.064297
2.600000	0.959934
2.610000	0.801136
2.620000	0.593378
2.630000	0.364361
2.640000	0.139854
2.650000	-0.070158
2.660000	-0.247316
2.670000	-0.381311
2.680000	-0.486639
2.690000	-0.564266
2.700000	-0.615481
2.710000	-0.646081
2.720000	-0.662186
2.730000	-0.672171
2.740000	-0.675070
2.750000	-0.664441
2.760000	-0.652845
2.770000	-0.641894
2.780000	-0.622567
2.790000	-0.604529
2.800000	-0.580694
2.810000	-0.557502
2.820000	-0.532700
2.830000	-0.505643
2.840000	-0.473433
2.850000	-0.437357
2.860000	-0.389686
2.870000	-0.337505
2.880000	-0.272762
2.890000	-0.191592
2.900000	-0.089484
2.910000	0.036781
2.920000	0.193002
2.930000	0.377246
2.940000	0.575018
2.950000	0.771180
2.960000	0.946084
2.970000	1.069128
2.980000	1.138059
2.990000	1.156741
3.000000	1.148366
3.010000	1.116478
3.020000	1.055922
3.030000	0.951238
3.040000	0.788252
3.050000	0.584037
3.060000	0.356631
3.070000	0.131157
3.080000	-0.073701
3.090000	-0.246349
3.100000	-0.384532
3.110000	-0.490182
3.120000	-0.562656
3.130000	-0.614515
3.140000	-0.645115
3.150000	-0.665407
3.160000	-0.671205
3.170000	-0.673138
3.180000	-0.666051
3.190000	-0.650912
3.200000	-0.638995
3.210000	-0.619668
3.220000	-0.599376
3.230000	-0.577473
3.240000	-0.556536
3.250000	-0.530445
3.260000	-0.502422
3.270000	-0.470856
3.280000	-0.433814
3.290000	-0.390330
3.300000	-0.334284
3.310000	-0.269863
3.320000	-0.187726
3.330000	-0.086263
3.340000	0.042256
3.350000	0.195256
3.360000	0.377568
3.370000	0.576951
3.380000	0.774402
3.390000	0.948661
3.400000	1.073638
3.410000	1.138059
3.420000	1.156419
3.430000	1.144823
3.440000	1.114223
3.450000	1.052701
3.460000	0.946406
3.470000	0.783098
3.480000	0.575340
3.490000	0.347290
3.500000	0.120528
3.510000	-0.086263
3.520000	-0.256979
3.530000	-0.390330
3.540000	-0.490182
3.550000	-0.562334
3.560000	-0.611938
3.570000	-0.640605
3.580000	-0.661220
3.590000	-0.670239
3.600000	-0.669594
3.610000	-0.661864
3.620000	-0.651557
3.630000	-0.636418
3.640000	-0.617414
3.650000	-0.597443
3.660000	-0.575218
3.670000	-0.553959
3.680000	-0.529479
3.690000	-0.501456
3.700000	-0.468923
3.710000	-0.429305
3.720000	-0.385821
3.730000	-0.331385
3.740000	-0.264387
3.750000	-0.185472
3.760000	-0.084331
3.770000	0.044189
3.780000	0.199122
3.790000	0.382721
3.800000	0.581782
3.810000	0.781488
3.820000	0.950593
3.830000	1.070739
3.840000	1.135160
3.850000	1.154164
3.860000	1.145145
3.870000	1.116156
3.880000	1.051735
3.890000	0.935132
3.900000	0.769892
3.910000	0.560524
3.920000	0.336983
3.930000	0.116018
3.940000	-0.087230
3.950000	-0.255690
3.960000	-0.389686
3.970000	-0.490827
3.980000	-0.562978
3.990000	-0.613548
4.000000	-0.644792
4.010000	-0.658643
4.020000	-0.666373
4.030000	-0.664119
4.040000	-0.657677
4.050000	-0.646403
4.060000	-0.632875
4.070000	-0.616769
4.080000	-0.596155
4.090000	-0.577151
4.100000	-0.553315
4.110000	-0.527869
4.120000	-0.496947
4.130000	-0.466991
4.140000	-0.427372
4.150000	-0.383244
4.160000	-0.328808
4.170000	-0.261488
4.180000	-0.180318
4.190000	-0.076278
4.200000	0.051275
4.210000	0.207496
4.220000	0.386909
4.230000	0.586292
4.240000	0.780522
4.250000	0.948661
4.260000	1.072671
4.270000	1.137093
4.280000	1.155453
4.290000	1.144179
4.300000	1.108425
4.310000	1.040461
4.320000	0.925147
4.330000	0.761195
4.340000	0.554404
4.350000	0.327641
4.360000	0.104101
4.370000	-0.096571
4.380000	-0.264065
4.390000	-0.391941
4.400000	-0.490504
4.410000	-0.563622
4.420000	-0.612582
4.430000	-0.644470
4.440000	-0.659287
4.450000	-0.666051
4.460000	-0.664119
4.470000	-0.656710
4.480000	-0.647047
4.490000	-0.631908
4.500000	-0.612582
4.510000	-0.593578
4.520000	-0.570708
4.530000	-0.545584
4.540000	-0.521427
4.550000	-0.492759
4.560000	-0.462804
4.570000	-0.425117
4.580000	-0.380667
4.590000	-0.328486
4.600000	-0.263421
4.610000	-0.177419
4.620000	-0.074668
4.630000	0.054496
4.640000	0.212650
4.650000	0.394639
4.660000	0.590801
4.670000	0.783420
4.680000	0.949949
4.690000	1.066874
4.700000	1.131295
4.710000	1.149977
4.720000	1.143535
4.730000	1.107781
4.740000	1.038206
4.750000	0.919027
4.760000	0.747989
4.770000	0.537976
4.780000	0.315401
4.790000	0.096692
4.800000	-0.100436
4.810000	-0.262777
4.820000	-0.392263
4.830000	-0.491149
4.840000	-0.561367
4.850000	-0.609039
4.860000	-0.639961
4.870000	-0.657677
4.880000	-0.662186
4.890000	-0.661864
4.900000	-0.653489
4.910000	-0.641249
4.920000	-0.626755
4.930000	-0.609039
4.940000	-0.589713
4.950000	-0.568454
4.960000	-0.545262
4.970000	-0.520138
4.980000	-0.489216
4.990000	-0.458616
5.000000	-0.422218
5.010000	-0.375191
5.020000	-0.323010
5.030000	-0.258267
5.040000	-0.175164
5.050000	-0.071124
5.060000	0.061261
5.070000	0.218770
5.080000	0.401726
5.090000	0.594345
5.100000	0.785675
5.110000	0.949949
5.120000	1.069128
5.130000	1.131617
5.140000	1.148044
5.150000	1.137737
5.160000	1.105526
5.170000	1.032408
5.180000	0.907109
5.190000	0.736715
5.200000	0.530890
5.210000	0.307027
5.220000	0.085096
5.230000	-0.111387
5.240000	-0.269863
5.250000	-0.396772
5.260000	-0.494048
5.270000	-0.564266
5.280000	-0.609039
5.290000	-0.636418
5.300000	-0.650912
5.310000	-0.662508
5.320000	-0.658965
5.330000	-0.650590
5.340000	-0.636418
5.350000	-0.625466
5.360000	-0.609361
5.370000	-0.590035
5.380000	-0.565877
5.390000	-0.540431
5.400000	-0.514018
5.410000	-0.487606
5.420000	-0.455395
5.430000	-0.418353
5.440000	-0.372292
5.450000	-0.320433
5.460000	-0.252147
5.470000	-0.169688
5.480000	-0.065327
5.490000	0.067059
5.500000	0.223924
5.510000	0.403658
5.520000	0.600142
5.530000	0.788574
5.540000	0.954136
5.550000	1.068806
5.560000	1.130006
5.570000	1.147400
5.580000	1.136448
5.590000	1.098440
5.600000	1.023067
5.610000	0.899056
5.620000	0.722865
5.630000	0.514785
5.640000	0.293820
5.650000	0.078010
5.660000	-0.114931
5.670000	-0.275339
5.680000	-0.399027
5.690000	-0.494692
5.700000	-0.561045
5.710000	-0.607750
5.720000	-0.633841
5.730000	-0.650912
5.740000	-0.657999
5.750000	-0.656710
5.760000	-0.649624
5.770000	-0.639961
5.780000	-0.626433
5.790000	-0.606140
5.800000	-0.586169
5.810000	-0.564266
5.820000	-0.540431
5.830000	-0.517883
5.840000	-0.486961
5.850000	-0.453785
5.860000	-0.413522
5.870000	-0.367461
5.880000	-0.313347
5.890000	-0.243772
5.900000	-0.161958
5.910000	-0.058562
5.920000	0.073179
5.930000	0.229722
5.940000	0.408168
5.950000	0.602397
5.960000	0.794050
5.970000	0.955103
5.980000	1.067196
5.990000	1.130328
6.000000	1.147400
6.010000	1.129684
6.020000	1.090387
6.030000	1.011793
6.040000	0.885528
6.050000	0.709980
6.060000	0.505444
6.070000	0.281903
6.080000	0.069635
6.090000	-0.120729
6.100000	-0.277593
6.110000	-0.404503
6.120000	-0.494370
6.130000	-0.562012
6.140000	-0.608717
6.150000	-0.636740
6.160000	-0.652201
6.170000	-0.659287
6.180000	-0.655100
6.190000	-0.645759
6.200000	-0.634163
6.210000	-0.617414
6.220000	-0.600664
6.230000	-0.582304
6.240000	-0.560401
6.250000	-0.538176
6.260000	-0.511441
6.270000	-0.483418
6.280000	-0.450241
6.290000	-0.413844
6.300000	-0.364884
6.310000	-0.311092
6.320000	-0.242162
6.330000	-0.158415
6.340000	-0.053409
6.350000	0.078654
6.360000	0.234553
6.370000	0.412999
6.380000	0.604974
6.390000	0.792117
6.400000	0.949305
6.410000	1.063652
6.420000	1.125175
6.430000	1.143213
6.440000	1.130328
6.450000	1.089743
6.460000	1.005996
6.470000	0.875543
6.480000	0.699029
6.490000	0.488694
6.500000	0.266441
6.510000	0.057718
6.520000	-0.131036
6.530000	-0.286290
6.540000	-0.407724
6.550000	-0.501456
6.560000	-0.563622
6.570000	-0.605818
6.580000	-0.634163
6.590000	-0.649946
6.600000	-0.657355
6.610000	-0.652523
6.620000	-0.643182
6.630000	-0.632552
6.640000	-0.616125
6.650000	-0.598409
6.660000	-0.579405
6.670000	-0.557824
6.680000	-0.537210
6.690000	-0.509509
6.700000	-0.481808
6.710000	-0.446698
6.720000	-0.409012
6.730000	-0.363273
6.740000	-0.310448
6.750000	-0.240874
6.760000	-0.155194
6.770000	-0.048255
6.780000	0.083164
6.790000	0.242284
6.800000	0.422985
6.810000	0.614315
6.820000	0.799204
6.830000	0.956069
6.840000	1.065585
6.850000	1.120665
6.860000	1.134838
6.870000	1.124531
6.880000	1.080080
6.890000	0.995688
6.900000	0.864269
6.910000	0.685823
6.920000	0.477098
6.930000	0.258389
6.940000	0.048376
6.950000	-0.138766
6.960000	-0.292410
6.970000	-0.410300
6.980000	-0.500490
6.990000	-0.564588
7.000000	-0.606462
7.010000	-0.635451
7.020000	-0.649302
7.030000	-0.655100
7.040000	-0.649624
7.050000	-0.640605
7.060000	-0.627077
7.070000	-0.612582
7.080000	-0.595188
7.090000	-0.575862
7.100000	-0.554281
7.110000	-0.531412
7.120000	-0.505643
7.130000	-0.475688
7.140000	-0.440256
7.150000	-0.404181
7.160000	-0.359086
7.170000	-0.304650
7.180000	-0.234754
7.190000	-0.149396
7.200000	-0.040524
7.210000	0.089928
7.220000	0.247437
7.230000	0.428138
7.240000	0.618180
7.250000	0.801780
7.260000	0.957680
7.270000	1.066229
7.280000	1.125175
7.290000	1.142246
7.300000	1.127107
7.310000	1.078791
7.320000	0.991179
7.330000	0.853640
7.340000	0.671972
7.350000	0.461637
7.360000	0.243250
7.370000	0.035814
7.380000	-0.149718
7.390000	-0.301429
7.400000	-0.417065
7.410000	-0.502744
7.420000	-0.562978
7.430000	-0.607428
7.440000	-0.635129
7.450000	-0.648336
7.460000	-0.651557
7.470000	-0.648658
7.480000	-0.641571
7.490000	-0.631264
7.500000	-0.614193
7.510000	-0.596155
7.520000	-0.577151
7.530000	-0.555247
7.540000	-0.529801
7.550000	-0.501134
7.560000	-0.472467
7.570000	-0.439934
7.580000	-0.399027
7.590000	-0.351033
7.600000	-0.294665
7.610000	-0.226379
7.620000	-0.141343
7.630000	-0.034404
7.640000	0.101524
7.650000	0.255168
7.660000	0.436191
7.670000	0.625911
7.680000	0.809189
7.690000	0.961867
7.700000	1.069128
7.710000	1.120021
7.720000	1.134516
7.730000	1.119377
7.740000	1.071061
7.750000	0.977328
7.760000	0.837534
7.770000	0.656833
7.780000	0.448753
7.790000	0.233265
7.800000	0.025185
7.810000	-0.157448
7.820000	-0.304006
7.830000	-0.417709
7.840000	-0.501778
7.850000	-0.562656
7.860000	-0.605818
7.870000	-0.630942
7.880000	-0.642538
7.890000	-0.644148
7.900000	-0.644792
7.910000	-0.636418
7.920000	-0.627077
7.930000	-0.610972
7.940000	-0.592289
7.950000	-0.571997
7.960000	-0.550738
7.970000	-0.526580
7.980000	-0.497913
7.990000	-0.467957
8.000000	-0.433170
8.010000	-0.393229
8.020000	-0.348134
8.030000	-0.290800
8.040000	-0.222514
8.050000	-0.133291
8.060000	-0.026352
8.070000	0.107966
8.080000	0.265153
8.090000	0.444244
8.100000	0.631709
8.110000	0.810477
8.120000	0.961545
8.130000	1.063330
8.140000	1.120021
8.150000	1.134516
8.160000	1.115834
8.170000	1.063975
8.180000	0.970564
8.190000	0.827871
8.200000	0.645237
8.210000	0.437157
8.220000	0.218126
8.230000	0.014878
8.240000	-0.166789
8.250000	-0.310448
8.260000	-0.421574
8.270000	-0.508220
8.280000	-0.567165
8.290000	-0.605174
8.300000	-0.627077
8.310000	-0.640605
8.320000	-0.645115
8.330000	-0.642538
8.340000	-0.633519
8.350000	-0.620313
8.360000	-0.605174
8.370000	-0.586814
8.380000	-0.567810
8.390000	-0.545584
8.400000	-0.524648
8.410000	-0.497269
8.420000	-0.468601
8.430000	-0.433814
8.440000	-0.389686
8.450000	-0.344591
8.460000	-0.285968
8.470000	-0.218326
8.480000	-0.126204
8.490000	-0.019910
8.500000	0.116018
8.510000	0.272561
8.520000	0.451974
8.530000	0.636540
8.540000	0.814987
8.550000	0.964766
8.560000	1.065263
8.570000	1.120665
8.580000	1.133549
8.590000	1.112935
8.600000	1.058499
8.610000	0.959612
8.620000	0.816919
8.630000	0.629132
8.640000	0.418475
8.650000	0.202343
8.660000	0.002315
8.670000	-0.173232
8.680000	-0.313991
8.690000	-0.426728
8.700000	-0.507254
8.710000	-0.567487
8.720000	-0.603241
8.730000	-0.625466
8.740000	-0.637706
8.750000	-0.638672
8.760000	-0.636418
8.770000	-0.628687
8.780000	-0.617736
8.790000	-0.602919
8.800000	-0.585847
8.810000	-0.565555
8.820000	-0.543007
8.830000	-0.520460
8.840000	-0.494048
8.850000	-0.466025
8.860000	-0.432848
8.870000	-0.390652
8.880000	-0.341370
8.890000	-0.281781
8.900000	-0.208985
8.910000	-0.121695
8.920000	-0.009280
8.930000	0.125037
8.940000	0.283835
8.950000	0.460027
8.960000	0.649747
8.970000	0.824006
8.980000	0.969275
8.990000	1.066229
9.000000	1.118733
9.010000	1.129362
9.020000	1.104560
9.030000	1.046581
9.040000	0.949305
9.050000	0.802425
9.060000	0.613993
9.070000	0.407524
9.080000	0.193002
9.090000	-0.006381
9.100000	-0.180640
9.110000	-0.320111
9.120000	-0.431559
9.130000	-0.510797
9.140000	-0.566843
9.150000	-0.603885
9.160000	-0.627399
9.170000	-0.637384
9.180000	-0.642860
9.190000	-0.636096
9.200000	-0.628365
9.210000	-0.613548
9.220000	-0.599698
9.230000	-0.581660
9.240000	-0.561690
9.250000	-0.538820
9.260000	-0.514340
9.270000	-0.487606
9.280000	-0.455717
9.290000	-0.423185
9.300000	-0.384532
9.310000	-0.336861
9.320000	-0.279204
9.330000	-0.208341
9.340000	-0.119440
9.350000	-0.007670
9.360000	0.129547
9.370000	0.291888
9.380000	0.472267
9.390000	0.657799
9.400000	0.829804
9.410000	0.971852
9.420000	1.064619
9.430000	1.113257
9.440000	1.123242
9.450000	1.098440
9.460000	1.037562
9.470000	0.935454
9.480000	0.786964
9.490000	0.597888
9.500000	0.390452
9.510000	0.180762
9.520000	-0.017333
9.530000	-0.187404
9.540000	-0.325909
9.550000	-0.430915
9.560000	-0.512085
9.570000	-0.564266
9.580000	-0.602919
9.590000	-0.624500
9.600000	-0.636740
9.610000	-0.640283
9.620000	-0.637062
9.630000	-0.628365
9.640000	-0.612260
9.650000	-0.595510
9.660000	-0.580372
9.670000	-0.562012
9.680000	-0.539786
9.690000	-0.511119
9.700000	-0.483740
9.710000	-0.452818
9.720000	-0.420286
9.730000	-0.379056
9.740000	-0.331707
9.750000	-0.269863
9.760000	-0.196423
9.770000	-0.107844
9.780000	0.005537
9.790000	0.139532
9.800000	0.299940
9.810000	0.475488
9.820000	0.658121
9.830000	0.831736
9.840000	0.972174
9.850000	1.066551
9.860000	1.115512
9.870000	1.123886
9.880000	1.097796
9.890000	1.034663
9.900000	0.925147
9.910000	0.770858
9.920000	0.581782
9.930000	0.371448
9.940000	0.162724
9.950000	-0.032472
9.960000	-0.199000
9.970000	-0.333318
9.980000	-0.438324
9.990000	-0.512408

